FP1 FP2 F7 F8 F3 F4 T3 T4 C3 C4 T5 T6 P3 P4 O1 O2 A1 A2 FZ CZ PZ EX1 EX2 EX3 EX4 EX5 EX6 EX7 EX8 ECG EMG CH32 
-0.26 -0.26 -0.26 -0.26 -0.26 -0.26 -0.25 -0.26 -0.26 -0.26 -0.26 -0.27 -0.27 -0.26 -0.26 -0.27 -0.26 -0.26 -0.26 -0.26 -0.26 -2.32 -2.21 -1.77 -2.43 -1.44 -2.21 -1.66 -1.44 -7.95 -3.76 -45.94 
-2.07 -2.10 -2.11 -2.09 -2.10 -2.12 -2.05 -2.11 -2.11 -2.07 -2.11 -2.14 -2.13 -2.10 -2.11 -2.17 -2.11 -2.09 -2.09 -2.07 -2.13 -2.32 -2.10 -1.66 -2.32 -1.44 -2.10 -1.66 -1.44 -7.07 -3.98 -43.52 
-7.82 -7.93 -7.95 -7.88 -7.91 -7.98 -7.72 -7.94 -7.94 -7.79 -7.95 -8.07 -8.02 -7.90 -7.94 -8.16 -7.97 -7.87 -7.86 -7.81 -8.02 -2.21 -2.10 -1.55 -2.54 -1.66 -2.21 -1.66 -1.44 -6.63 -3.98 -42.63 
-18.62 -18.92 -18.94 -18.78 -18.85 -19.00 -18.39 -18.91 -18.93 -18.56 -18.97 -19.23 -19.08 -18.82 -18.88 -19.40 -19.00 -18.73 -18.70 -18.62 -19.14 -2.21 -2.10 -1.55 -2.54 -1.55 -2.21 -1.66 -1.44 -6.18 -3.98 -42.52 
-31.98 -32.54 -32.54 -32.28 -32.38 -32.64 -31.60 -32.47 -32.55 -31.88 -32.65 -33.04 -32.76 -32.36 -32.39 -33.25 -32.66 -32.18 -32.10 -32.03 -32.97 -2.32 -2.10 -1.44 -2.54 -1.55 -2.32 -1.55 -1.33 -5.74 -3.53 -41.42 
-43.01 -43.78 -43.77 -43.46 -43.57 -43.90 -42.54 -43.65 -43.84 -42.88 -44.06 -44.48 -44.13 -43.63 -43.54 -44.65 -44.00 -43.33 -43.18 -43.15 -44.57 -2.21 -2.10 -1.44 -2.65 -1.66 -2.32 -1.66 -1.44 -6.63 -3.53 -39.54 
-48.26 -49.13 -49.15 -48.84 -48.93 -49.28 -47.81 -48.98 -49.27 -48.12 -49.70 -49.92 -49.73 -49.14 -48.86 -50.03 -49.47 -48.73 -48.48 -48.53 -50.36 -2.43 -2.21 -1.66 -2.65 -1.66 -2.32 -1.66 -1.55 -8.84 -4.20 -38.55 
-47.99 -48.92 -48.97 -48.64 -48.71 -49.04 -47.59 -48.66 -49.02 -47.81 -49.72 -49.47 -49.75 -49.06 -48.53 -49.60 -49.27 -48.55 -48.21 -48.34 -50.40 -2.43 -2.21 -1.66 -2.43 -1.44 -2.32 -1.55 -1.66 -8.84 -3.76 -35.78 
-45.16 -46.16 -46.17 -45.76 -45.86 -46.10 -44.66 -45.62 -45.96 -44.80 -46.94 -46.06 -47.03 -46.23 -45.43 -46.32 -46.30 -45.58 -45.24 -45.41 -47.45 -2.43 -2.21 -1.55 -2.43 -1.44 -2.21 -1.66 -1.33 -8.84 -3.76 -32.47 
-42.64 -43.78 -43.66 -43.09 -43.26 -43.35 -41.86 -42.79 -42.99 -42.00 -44.27 -42.81 -44.45 -43.57 -42.52 -43.29 -43.50 -42.70 -42.46 -42.62 -44.44 -2.32 -2.21 -1.55 -2.43 -1.55 -2.21 -1.66 -1.44 -9.28 -4.20 -30.48 
-41.35 -42.66 -42.34 -41.60 -41.88 -41.77 -40.22 -41.20 -41.19 -40.44 -42.73 -41.02 -43.00 -42.07 -40.94 -41.68 -41.93 -40.97 -40.86 -41.02 -42.55 -2.21 -2.10 -1.55 -2.32 -1.33 -2.10 -1.66 -1.44 -8.39 -4.20 -28.27 
-40.26 -41.73 -41.22 -40.36 -40.70 -40.44 -38.92 -39.95 -39.78 -39.28 -41.46 -39.88 -41.74 -40.81 -39.84 -40.60 -40.71 -39.59 -39.59 -39.76 -41.04 -2.32 -2.21 -1.55 -2.32 -1.33 -1.99 -1.66 -1.44 -7.51 -3.76 -25.18 
-37.79 -39.40 -38.74 -37.91 -38.21 -37.91 -36.52 -37.54 -37.35 -37.00 -38.98 -37.75 -39.17 -38.30 -37.62 -38.42 -38.33 -37.14 -37.19 -37.34 -38.50 -2.21 -2.10 -1.55 -2.43 -1.55 -2.21 -1.66 -1.44 -5.74 -3.09 -23.19 
-33.23 -34.94 -34.22 -33.51 -33.75 -33.50 -32.26 -33.22 -33.12 -32.79 -34.58 -33.67 -34.57 -33.81 -33.36 -34.22 -34.01 -32.89 -32.98 -33.01 -34.20 -2.21 -2.10 -1.44 -2.54 -1.55 -2.21 -1.66 -1.44 -5.74 -3.31 -22.31 
-27.32 -29.04 -28.35 -27.78 -28.02 -27.85 -26.72 -27.61 -27.64 -27.24 -28.85 -28.09 -28.58 -27.95 -27.61 -28.49 -28.35 -27.43 -27.53 -27.36 -28.64 -2.21 -1.99 -1.44 -2.32 -1.55 -2.21 -1.55 -1.33 -5.74 -3.98 -19.55 
-21.73 -23.30 -22.75 -22.23 -22.56 -22.45 -21.44 -22.28 -22.40 -21.90 -23.36 -22.61 -22.85 -22.30 -22.00 -22.87 -22.94 -22.24 -22.30 -21.98 -23.31 -2.21 -2.10 -1.55 -2.43 -1.55 -2.21 -1.66 -1.44 -8.39 -4.86 -16.24 
-17.93 -19.27 -18.89 -18.34 -18.77 -18.70 -17.88 -18.66 -18.80 -18.24 -19.55 -18.78 -18.89 -18.36 -18.14 -18.94 -19.31 -18.71 -18.61 -18.38 -19.59 -2.21 -2.21 -1.66 -2.65 -1.66 -2.32 -1.55 -1.55 -9.72 -4.20 -13.58 
-16.29 -17.52 -17.19 -16.58 -17.02 -17.00 -16.42 -17.11 -17.26 -16.67 -17.80 -17.04 -17.14 -16.57 -16.52 -17.18 -17.86 -17.19 -16.83 -16.93 -17.87 -2.32 -2.21 -1.55 -2.43 -1.44 -2.21 -1.55 -1.33 -8.84 -3.98 -10.05 
-16.02 -17.38 -16.86 -16.26 -16.63 -16.64 -16.20 -16.83 -16.99 -16.37 -17.37 -16.66 -16.87 -16.21 -16.37 -16.83 -17.72 -16.87 -16.28 -16.75 -17.40 -2.32 -2.21 -1.55 -2.43 -1.33 -2.21 -1.66 -1.55 -9.72 -4.42 -5.74 
-15.77 -17.45 -16.56 -16.03 -16.31 -16.33 -15.82 -16.45 -16.64 -15.99 -16.97 -16.31 -16.72 -15.95 -16.26 -16.51 -17.44 -16.41 -15.77 -16.41 -16.95 -2.32 -2.21 -1.55 -2.54 -1.55 -2.21 -1.44 -1.44 -8.39 -3.76 -3.98 
-14.44 -16.39 -15.14 -14.69 -14.92 -14.94 -14.19 -14.87 -15.12 -14.43 -15.48 -14.91 -15.50 -14.63 -14.98 -15.06 -15.86 -14.75 -14.25 -14.77 -15.49 -2.32 -2.10 -1.66 -2.32 -1.33 -2.10 -1.66 -1.33 -7.95 -3.53 -2.21 
-11.63 -13.57 -12.22 -11.75 -11.99 -12.04 -11.00 -11.73 -12.07 -11.32 -12.48 -12.07 -12.66 -11.78 -12.11 -12.05 -12.62 -11.61 -11.31 -11.55 -12.60 -2.21 -1.99 -1.55 -2.32 -1.21 -2.10 -1.66 -1.44 -6.18 -3.53 0.99 
-7.60 -9.29 -8.13 -7.55 -7.81 -7.92 -6.74 -7.41 -7.86 -7.04 -8.23 -8.10 -8.46 -7.64 -8.02 -7.85 -8.20 -7.40 -7.24 -7.25 -8.50 -2.10 -1.99 -1.44 -2.43 -1.55 -2.21 -1.66 -1.33 -6.63 -3.98 4.42 
-2.96 -4.38 -3.49 -2.81 -3.07 -3.23 -2.15 -2.66 -3.18 -2.32 -3.38 -3.61 -3.57 -2.86 -3.41 -3.12 -3.43 -2.82 -2.66 -2.65 -3.73 -2.21 -1.99 -1.44 -2.54 -1.55 -2.21 -1.66 -1.33 -5.74 -3.53 5.08 
1.65 0.29 1.07 1.78 1.53 1.38 2.14 1.84 1.29 2.15 1.37 0.80 1.26 1.86 1.10 1.46 1.00 1.50 1.77 1.64 1.04 -2.21 -1.99 -1.66 -2.43 -1.44 -2.10 -1.66 -1.33 -6.18 -3.98 8.17 
5.69 4.18 5.04 5.66 5.45 5.34 5.77 5.59 5.08 5.89 5.42 4.61 5.36 5.89 4.99 5.35 4.68 5.14 5.52 5.23 5.18 -2.21 -2.10 -1.55 -2.65 -1.66 -2.32 -1.66 -1.44 -7.51 -4.20 11.49 
8.77 7.03 8.09 8.54 8.38 8.30 8.53 8.37 7.92 8.68 8.42 7.48 8.34 8.85 7.90 8.20 7.43 7.90 8.33 7.94 8.22 -2.32 -2.10 -1.55 -2.54 -1.55 -2.32 -1.66 -1.44 -9.72 -4.64 12.92 
10.82 8.93 10.13 10.46 10.31 10.20 10.46 10.21 9.81 10.55 10.35 9.36 10.19 10.73 9.81 9.99 9.31 9.83 10.22 9.82 10.12 -2.21 -2.10 -1.55 -2.43 -1.44 -2.21 -1.66 -1.55 -8.39 -4.20 15.13 
12.08 10.23 11.39 11.73 11.52 11.35 11.79 11.42 11.07 11.82 11.53 10.57 11.34 11.87 11.04 11.09 10.63 11.23 11.48 11.14 11.29 -2.32 -2.10 -1.55 -2.32 -1.44 -2.21 -1.66 -1.44 -8.84 -3.98 17.78 
13.00 11.39 12.31 12.79 12.43 12.23 12.90 12.47 12.15 12.94 12.52 11.66 12.37 12.84 12.12 12.07 11.79 12.49 12.55 12.32 12.32 -2.32 -2.21 -1.77 -2.43 -1.55 -2.10 -1.66 -1.44 -8.39 -3.76 20.21 
14.12 12.84 13.46 14.16 13.57 13.41 14.23 13.88 13.55 14.37 13.85 13.21 13.78 14.18 13.62 13.51 13.24 14.02 13.89 13.80 13.76 -2.32 -1.99 -1.44 -2.32 -1.33 -2.10 -1.55 -1.44 -7.07 -3.09 24.19 
15.96 14.93 15.34 16.26 15.42 15.33 16.18 16.01 15.59 16.47 15.91 15.62 15.89 16.29 15.95 15.80 15.30 16.13 15.92 15.91 15.93 -2.21 -1.99 -1.33 -2.21 -1.21 -2.10 -1.55 -1.33 -6.18 -3.53 27.39 
18.77 17.77 18.20 19.22 18.25 18.19 18.96 18.97 18.45 19.36 18.80 18.87 18.75 19.24 19.10 18.97 18.12 18.97 18.82 18.76 18.85 -2.10 -2.10 -1.44 -2.43 -1.44 -2.10 -1.66 -1.44 -6.63 -3.76 28.27 
22.39 21.22 21.91 22.82 21.95 21.83 22.47 22.55 22.01 22.88 22.29 22.61 22.20 22.80 22.75 22.69 21.59 22.45 22.39 22.20 22.30 -2.21 -2.10 -1.55 -2.54 -1.44 -2.21 -1.55 -1.44 -5.30 -3.31 29.16 
26.25 24.89 25.87 26.50 25.91 25.67 26.28 26.31 25.87 26.63 25.94 26.28 25.84 26.51 26.33 26.37 25.35 26.21 26.12 25.85 25.87 -2.21 -1.99 -1.44 -2.43 -1.44 -2.32 -1.66 -1.44 -6.63 -3.76 32.14 
29.61 28.22 29.30 29.64 29.33 28.99 29.76 29.72 29.43 30.04 29.22 29.32 29.13 29.81 29.26 29.40 28.85 29.68 29.36 29.17 29.02 -2.10 -2.10 -1.33 -2.54 -1.55 -2.32 -1.66 -1.44 -6.18 -3.53 34.90 
32.04 30.72 31.70 31.89 31.72 31.38 32.38 32.35 32.14 32.64 31.69 31.37 31.63 32.26 31.17 31.43 31.60 32.34 31.73 31.70 31.38 -2.21 -2.21 -1.44 -2.65 -1.66 -2.43 -1.66 -1.44 -7.95 -3.76 35.78 
33.54 32.33 33.10 33.34 33.14 32.90 34.04 34.08 33.85 34.33 33.31 32.51 33.27 33.80 32.20 32.58 33.41 34.03 33.27 33.37 32.92 -2.32 -2.10 -1.55 -2.43 -1.44 -2.21 -1.55 -1.44 -7.95 -3.53 37.77 
34.49 33.35 33.98 34.39 34.01 33.95 34.99 35.12 34.84 35.35 34.34 33.13 34.36 34.73 32.82 33.27 34.47 35.00 34.32 34.41 33.96 -2.32 -2.21 -1.44 -2.43 -1.44 -2.21 -1.66 -1.44 -8.39 -3.76 41.20 
35.33 34.27 34.84 35.42 34.82 34.95 35.72 35.88 35.59 36.11 35.24 33.72 35.31 35.53 33.52 34.03 35.18 35.75 35.26 35.25 34.91 -2.32 -2.21 -1.55 -2.54 -1.55 -2.21 -1.44 -1.44 -7.51 -3.31 43.07 
36.48 35.49 36.08 36.71 35.96 36.21 36.67 36.81 36.60 37.05 36.40 34.71 36.52 36.64 34.69 35.24 36.05 36.76 36.41 36.32 36.12 -2.32 -2.10 -1.66 -2.32 -1.44 -2.10 -1.55 -1.44 -6.18 -2.65 44.29 
38.15 37.22 37.86 38.38 37.61 37.84 38.15 38.24 38.17 38.50 38.00 36.31 38.16 38.29 36.45 37.04 37.47 38.28 37.94 37.90 37.75 -2.21 -2.10 -1.44 -2.32 -1.33 -2.10 -1.66 -1.44 -7.07 -4.64 47.16 
40.30 39.40 40.06 40.38 39.72 39.81 40.15 40.25 40.33 40.53 39.97 38.47 40.15 40.37 38.68 39.28 39.55 40.31 39.89 40.02 39.74 -2.21 -2.10 -1.44 -2.54 -1.55 -2.21 -1.55 -1.33 -6.18 -3.09 48.71 
42.67 41.80 42.45 42.58 42.07 41.98 42.46 42.63 42.78 42.91 42.13 40.95 42.30 42.61 41.15 41.71 42.02 42.57 42.13 42.46 41.87 -2.21 -2.10 -1.44 -2.54 -1.66 -2.32 -1.66 -1.33 -7.07 -4.42 48.04 
44.93 44.12 44.69 44.74 44.35 44.11 44.69 45.00 45.09 45.23 44.23 43.43 44.41 44.74 43.58 44.05 44.37 44.70 44.41 44.83 43.95 -2.10 -2.10 -1.44 -2.54 -1.66 -2.21 -1.66 -1.21 -7.95 -4.86 49.04 
46.73 46.07 46.44 46.56 46.18 45.87 46.41 46.86 46.82 47.00 46.04 45.50 46.22 46.47 45.56 45.98 46.10 46.32 46.30 46.67 45.68 -2.43 -2.10 -1.44 -2.54 -1.66 -2.21 -1.55 -1.44 -8.39 -4.42 50.36 
47.84 47.36 47.47 47.75 47.32 46.98 47.34 47.87 47.74 47.96 47.27 46.84 47.44 47.59 46.79 47.19 46.93 47.19 47.44 47.68 46.82 -2.32 -2.10 -1.44 -2.54 -1.66 -2.32 -1.55 -1.44 -9.72 -4.64 50.69 
48.25 47.88 47.81 48.25 47.75 47.39 47.55 48.07 47.92 48.23 47.85 47.39 47.94 48.05 47.24 47.65 47.03 47.39 47.76 47.93 47.30 -2.65 -2.21 -1.66 -2.54 -1.55 -2.21 -1.66 -1.33 -9.28 -3.76 51.25 
48.16 47.84 47.74 48.24 47.71 47.29 47.38 47.84 47.73 48.18 47.88 47.38 47.82 48.01 47.19 47.58 46.87 47.24 47.54 47.78 47.28 -2.43 -2.21 -1.77 -2.43 -1.55 -2.10 -1.66 -1.44 -8.39 -3.53 52.68 
47.88 47.64 47.58 48.02 47.52 47.01 47.21 47.62 47.55 48.14 47.60 47.19 47.39 47.70 46.99 47.33 46.87 47.11 47.20 47.67 47.06 -2.32 -2.10 -1.55 -2.54 -1.44 -2.32 -1.66 -1.44 -9.72 -4.64 53.12 
47.72 47.61 47.51 47.89 47.41 46.86 47.29 47.63 47.59 48.29 47.28 47.12 47.00 47.41 46.90 47.21 47.17 47.20 47.05 47.80 46.89 -2.43 -2.21 -1.66 -2.32 -1.44 -2.10 -1.66 -1.44 -7.07 -2.65 52.68 
47.85 47.86 47.59 47.99 47.51 46.97 47.59 47.85 47.82 48.52 47.11 47.29 46.87 47.35 47.03 47.39 47.60 47.49 47.18 48.08 46.87 -2.32 -1.99 -1.44 -2.32 -1.44 -2.10 -1.55 -1.44 -5.30 -3.31 53.46 
48.18 48.28 47.78 48.24 47.74 47.28 47.88 48.04 48.03 48.64 47.10 47.59 46.96 47.49 47.27 47.76 47.84 47.78 47.48 48.23 46.92 -2.21 -2.10 -1.44 -2.54 -1.44 -2.21 -1.55 -1.33 -6.18 -3.98 53.68 
48.51 48.63 47.98 48.50 47.96 47.58 47.93 48.06 48.07 48.54 47.17 47.81 47.12 47.67 47.48 48.11 47.77 47.92 47.76 48.11 46.94 -2.21 -2.10 -1.44 -2.54 -1.55 -2.21 -1.55 -1.33 -7.51 -3.98 51.69 
48.61 48.76 48.07 48.64 48.03 47.68 47.75 47.95 47.96 48.29 47.20 47.85 47.20 47.73 47.57 48.29 47.46 47.88 47.86 47.78 46.89 -2.21 -1.99 -1.33 -2.43 -1.55 -2.21 -1.66 -1.33 -6.63 -3.98 51.58 
48.34 48.56 47.90 48.47 47.85 47.43 47.39 47.75 47.75 47.96 47.05 47.60 47.06 47.55 47.38 48.17 47.08 47.67 47.69 47.38 46.72 -2.32 -2.10 -1.44 -2.65 -1.66 -2.43 -1.66 -1.44 -7.95 -4.20 52.02 
47.65 48.00 47.32 47.90 47.33 46.76 46.88 47.39 47.41 47.51 46.60 47.01 46.61 47.10 46.82 47.65 46.64 47.26 47.16 46.94 46.37 -2.43 -2.21 -1.55 -2.76 -1.66 -2.32 -1.55 -1.44 -8.39 -3.98 50.69 
46.68 47.09 46.35 46.94 46.52 45.75 46.21 46.77 46.86 46.85 45.87 46.10 45.88 46.44 45.90 46.75 46.06 46.59 46.33 46.39 45.79 -2.32 -2.10 -1.66 -2.54 -1.55 -2.21 -1.55 -1.44 -7.95 -3.31 49.81 
45.57 45.95 45.14 45.73 45.49 44.55 45.37 45.85 46.06 45.94 44.94 44.97 44.93 45.60 44.70 45.55 45.25 45.67 45.27 45.63 44.99 -2.32 -2.21 -1.66 -2.54 -1.55 -2.21 -1.55 -1.44 -8.84 -3.98 50.58 
44.40 44.71 43.86 44.41 44.34 43.27 44.37 44.66 44.97 44.76 43.84 43.74 43.80 44.49 43.38 44.20 44.17 44.51 44.04 44.59 43.96 -2.32 -2.21 -1.66 -2.54 -1.55 -2.32 -1.55 -1.44 -7.51 -3.53 48.82 
43.17 43.46 42.55 43.05 43.11 41.95 43.27 43.30 43.62 43.42 42.57 42.48 42.51 43.10 42.07 42.87 42.89 43.20 42.68 43.33 42.74 -2.21 -2.21 -1.44 -2.43 -1.44 -2.10 -1.66 -1.33 -7.07 -2.87 47.05 
41.87 42.25 41.22 41.70 41.84 40.60 42.06 41.87 42.13 42.04 41.18 41.21 41.14 41.53 40.86 41.60 41.48 41.81 41.26 41.98 41.38 -2.32 -2.10 -1.55 -2.43 -1.44 -2.10 -1.55 -1.33 -5.30 -3.31 46.39 
40.47 41.07 39.85 40.33 40.48 39.21 40.71 40.39 40.58 40.71 39.74 39.84 39.76 39.96 39.66 40.32 39.99 40.36 39.81 40.60 39.94 -2.32 -2.10 -1.55 -2.54 -1.55 -2.32 -1.55 -1.44 -7.95 -5.30 44.95 
38.99 39.81 38.46 38.88 39.00 37.78 39.18 38.87 39.07 39.40 38.33 38.33 38.41 38.52 38.38 38.92 38.46 38.87 38.36 39.16 38.46 -2.21 -1.99 -1.44 -2.65 -1.66 -2.32 -1.66 -1.44 -5.74 -3.53 42.52 
37.46 38.40 37.07 37.31 37.41 36.31 37.51 37.32 37.56 38.00 36.95 36.72 37.04 37.15 36.96 37.40 36.89 37.33 36.89 37.62 36.93 -2.21 -2.10 -1.55 -2.54 -1.55 -2.32 -1.55 -1.44 -6.63 -4.42 40.42 
35.85 36.76 35.59 35.56 35.73 34.74 35.67 35.69 35.92 36.35 35.39 35.03 35.44 35.61 35.37 35.73 35.21 35.65 35.28 35.89 35.23 -2.32 -2.10 -1.44 -2.65 -1.77 -2.43 -1.66 -1.44 -6.63 -3.31 38.66 
34.03 34.84 33.83 33.55 33.87 32.93 33.57 33.76 33.93 34.29 33.42 33.16 33.38 33.64 33.49 33.81 33.23 33.68 33.37 33.84 33.21 -2.21 -2.21 -1.55 -2.65 -1.66 -2.54 -1.66 -1.55 -7.95 -3.53 34.68 
31.91 32.64 31.67 31.28 31.73 30.79 31.15 31.38 31.46 31.81 30.96 31.02 30.84 31.17 31.26 31.54 30.84 31.35 31.10 31.43 30.86 -2.43 -2.21 -1.55 -2.65 -1.66 -2.32 -1.66 -1.55 -8.84 -3.76 32.91 
29.41 30.18 29.09 28.76 29.19 28.32 28.47 28.64 28.65 29.03 28.21 28.56 28.07 28.39 28.70 28.93 28.09 28.73 28.52 28.73 28.31 -2.21 -2.10 -1.55 -2.65 -1.66 -2.32 -1.66 -1.44 -8.84 -3.98 32.25 
26.60 27.53 26.22 26.03 26.31 25.59 25.73 25.79 25.77 26.17 25.52 25.91 25.37 25.65 25.97 26.12 25.23 26.03 25.77 25.93 25.77 -2.32 -2.10 -1.55 -2.65 -1.66 -2.43 -1.66 -1.44 -8.39 -3.53 29.05 
23.68 24.81 23.31 23.23 23.32 22.75 23.13 23.15 23.06 23.45 23.11 23.28 22.93 23.20 23.29 23.38 22.53 23.44 23.05 23.24 23.40 -2.32 -2.10 -1.55 -2.54 -1.44 -2.21 -1.55 -1.44 -7.51 -3.31 26.62 
20.88 22.13 20.56 20.47 20.47 19.98 20.71 20.83 20.62 20.96 20.87 20.80 20.69 20.98 20.81 20.88 20.11 20.99 20.45 20.75 21.13 -2.32 -2.10 -1.55 -2.54 -1.33 -2.21 -1.66 -1.44 -6.63 -3.98 24.74 
18.27 19.53 18.01 17.82 17.85 17.35 18.35 18.64 18.32 18.64 18.51 18.44 18.38 18.71 18.46 18.55 17.89 18.54 17.95 18.39 18.75 -2.32 -2.10 -1.44 -2.54 -1.55 -2.43 -1.66 -1.33 -6.18 -3.53 22.20 
15.80 16.99 15.58 15.27 15.38 14.85 15.93 16.33 15.97 16.34 15.83 16.09 15.84 16.18 16.09 16.24 15.66 15.97 15.48 16.04 16.13 -2.32 -2.10 -1.55 -2.76 -1.66 -2.54 -1.66 -1.44 -5.30 -3.31 18.00 
13.33 14.48 13.14 12.77 12.92 12.40 13.42 13.82 13.48 13.96 12.90 13.67 13.11 13.42 13.65 13.84 13.31 13.32 13.00 13.67 13.34 -2.21 -2.21 -1.44 -2.54 -1.55 -2.32 -1.66 -1.44 -6.63 -4.20 15.68 
10.70 11.93 10.52 10.18 10.31 9.83 10.82 11.11 10.80 11.40 9.92 11.15 10.30 10.59 11.09 11.32 10.79 10.65 10.42 11.20 10.53 -2.32 -2.21 -1.55 -2.76 -1.77 -2.43 -1.66 -1.44 -7.95 -4.20 12.81 
7.83 9.26 7.62 7.39 7.47 6.99 8.14 8.26 7.93 8.64 7.02 8.50 7.45 7.75 8.42 8.66 8.10 7.94 7.62 8.56 7.78 -2.32 -2.21 -1.55 -2.87 -1.77 -2.54 -1.55 -1.33 -8.84 -3.98 9.94 
4.81 6.40 4.48 4.40 4.47 3.87 5.38 5.32 4.95 5.76 4.23 5.72 4.58 4.90 5.67 5.86 5.29 5.18 4.58 5.76 5.04 -2.43 -2.21 -1.77 -2.43 -1.55 -2.43 -1.55 -1.55 -8.39 -3.53 7.18 
1.74 3.39 1.35 1.33 1.40 0.65 2.55 2.34 1.97 2.84 1.51 2.81 1.70 2.03 2.83 2.92 2.38 2.34 1.46 2.87 2.25 -2.43 -2.32 -1.66 -2.54 -1.55 -2.32 -1.55 -1.44 -8.39 -3.53 5.63 
-1.25 0.32 -1.59 -1.64 -1.60 -2.44 -0.35 -0.63 -0.98 -0.12 -1.16 -0.25 -1.16 -0.85 -0.13 -0.18 -0.62 -0.57 -1.56 -0.07 -0.61 -2.43 -2.21 -1.66 -2.65 -1.66 -2.32 -1.66 -1.44 -7.51 -2.87 2.87 
-4.08 -2.69 -4.28 -4.39 -4.48 -5.26 -3.28 -3.53 -3.86 -3.08 -3.85 -3.38 -3.98 -3.71 -3.20 -3.36 -3.65 -3.50 -4.37 -3.01 -3.48 -2.32 -2.21 -1.55 -2.54 -1.66 -2.21 -1.66 -1.33 -7.07 -3.53 0.00 
-6.74 -5.57 -6.86 -6.98 -7.21 -7.87 -6.16 -6.32 -6.66 -6.02 -6.58 -6.46 -6.79 -6.52 -6.26 -6.49 -6.58 -6.38 -7.03 -5.90 -6.32 -2.32 -2.21 -1.55 -2.43 -1.55 -2.21 -1.66 -1.44 -7.07 -3.53 -2.21 
-9.29 -8.35 -9.49 -9.54 -9.86 -10.45 -8.95 -9.05 -9.37 -8.88 -9.35 -9.35 -9.62 -9.32 -9.18 -9.47 -9.33 -9.16 -9.68 -8.71 -9.14 -2.32 -2.10 -1.44 -2.65 -1.55 -2.43 -1.66 -1.44 -6.18 -3.53 -4.75 
-11.82 -11.07 -12.25 -12.20 -12.48 -13.09 -11.64 -11.82 -12.03 -11.64 -12.08 -11.96 -12.38 -12.05 -11.86 -12.22 -11.93 -11.88 -12.34 -11.43 -11.89 -2.21 -2.10 -1.55 -2.65 -1.66 -2.43 -1.66 -1.33 -6.63 -3.98 -9.39 
-14.35 -13.69 -15.05 -14.96 -15.12 -15.74 -14.33 -14.69 -14.69 -14.36 -14.69 -14.30 -14.97 -14.66 -14.30 -14.74 -14.54 -14.62 -14.98 -14.09 -14.49 -2.21 -2.21 -1.44 -2.65 -1.66 -2.32 -1.66 -1.44 -6.63 -3.76 -12.70 
-16.96 -16.25 -17.87 -17.82 -17.86 -18.39 -17.14 -17.69 -17.50 -17.16 -17.23 -16.59 -17.44 -17.22 -16.66 -17.17 -17.34 -17.49 -17.62 -16.84 -16.99 -2.21 -2.10 -1.44 -2.76 -1.66 -2.43 -1.66 -1.44 -8.84 -4.86 -14.25 
-19.72 -18.90 -20.71 -20.79 -20.75 -21.11 -20.14 -20.75 -20.51 -20.14 -19.84 -19.11 -19.98 -19.89 -19.14 -19.68 -20.42 -20.54 -20.36 -19.79 -19.59 -2.32 -2.10 -1.55 -2.65 -1.77 -2.43 -1.66 -1.44 -9.72 -4.20 -16.57 
-22.57 -21.74 -23.51 -23.78 -23.66 -23.85 -23.14 -23.68 -23.59 -23.21 -22.55 -21.85 -22.67 -22.69 -21.72 -22.26 -23.63 -23.63 -23.20 -22.90 -22.34 -2.43 -2.10 -1.55 -2.65 -1.55 -2.32 -1.66 -1.55 -10.16 -4.64 -18.44 
-25.32 -24.64 -26.09 -26.59 -26.35 -26.44 -25.84 -26.25 -26.45 -26.07 -25.24 -24.53 -25.35 -25.44 -24.18 -24.71 -26.60 -26.43 -25.92 -25.88 -25.11 -2.43 -2.21 -1.66 -2.65 -1.66 -2.32 -1.66 -1.44 -9.72 -4.64 -19.77 
-27.79 -27.28 -28.33 -29.02 -28.66 -28.75 -28.07 -28.40 -28.86 -28.49 -27.71 -26.87 -27.81 -27.88 -26.34 -26.86 -29.05 -28.72 -28.30 -28.46 -27.65 -2.32 -2.10 -1.66 -2.76 -1.55 -2.32 -1.66 -1.44 -8.84 -4.20 -22.31 
-29.96 -29.48 -30.29 -31.06 -30.64 -30.79 -29.92 -30.28 -30.87 -30.45 -29.89 -28.83 -29.96 -29.92 -28.26 -28.80 -30.96 -30.55 -30.31 -30.55 -29.82 -2.32 -2.10 -1.44 -2.43 -1.44 -2.21 -1.66 -1.55 -7.51 -3.53 -24.41 
-31.93 -31.32 -32.19 -32.86 -32.48 -32.71 -31.66 -32.15 -32.73 -32.23 -31.87 -30.61 -31.91 -31.72 -30.16 -30.73 -32.62 -32.20 -32.10 -32.30 -31.71 -2.32 -2.10 -1.55 -2.54 -1.55 -2.21 -1.55 -1.44 -6.18 -3.53 -26.06 
-33.86 -33.09 -34.19 -34.62 -34.36 -34.64 -33.52 -34.18 -34.70 -34.10 -33.88 -32.51 -33.89 -33.61 -32.23 -32.83 -34.36 -33.97 -33.93 -34.02 -33.58 -2.21 -1.88 -1.44 -2.65 -1.66 -2.32 -1.77 -1.33 -7.51 -4.64 -28.83 
-35.86 -35.00 -36.30 -36.45 -36.35 -36.59 -35.54 -36.32 -36.77 -36.12 -36.00 -34.63 -35.99 -35.71 -34.47 -35.08 -36.31 -35.95 -35.91 -35.89 -35.63 -2.21 -1.99 -1.77 -2.65 -1.66 -2.43 -1.66 -1.44 -7.07 -4.42 -32.03 
-37.93 -37.04 -38.44 -38.37 -38.39 -38.53 -37.52 -38.38 -38.76 -38.09 -38.15 -36.88 -38.10 -37.89 -36.67 -37.32 -38.31 -37.96 -37.99 -37.85 -37.78 -2.32 -2.21 -1.55 -2.65 -1.66 -2.43 -1.66 -1.44 -7.07 -3.98 -34.02 
-40.04 -39.11 -40.54 -40.34 -40.39 -40.48 -39.33 -40.17 -40.50 -39.86 -40.17 -39.07 -40.09 -39.91 -38.68 -39.42 -40.12 -39.81 -40.07 -39.74 -39.87 -2.21 -2.10 -1.44 -2.76 -1.77 -2.54 -1.66 -1.33 -7.95 -4.64 -36.34 
-42.13 -41.14 -42.61 -42.36 -42.34 -42.48 -40.95 -41.68 -42.00 -41.40 -42.00 -41.08 -41.92 -41.68 -40.47 -41.36 -41.63 -41.41 -42.09 -41.39 -41.74 -2.32 -2.21 -1.77 -2.76 -1.88 -2.43 -1.55 -1.44 -9.28 -4.20 -38.66 
-44.10 -43.09 -44.63 -44.35 -44.22 -44.45 -42.42 -43.01 -43.34 -42.79 -43.68 -42.85 -43.66 -43.27 -42.10 -43.17 -42.90 -42.82 -44.00 -42.77 -43.37 -2.43 -2.21 -1.77 -2.65 -1.66 -2.32 -1.66 -1.44 -10.60 -4.86 -39.32 
-45.83 -44.94 -46.48 -46.22 -46.01 -46.26 -43.86 -44.35 -44.69 -44.18 -45.28 -44.42 -45.35 -44.83 -43.65 -44.88 -44.17 -44.20 -45.76 -44.01 -44.84 -2.32 -2.21 -1.66 -2.65 -1.55 -2.32 -1.55 -1.44 -9.28 -4.64 -39.10 
-47.25 -46.62 -48.02 -47.83 -47.64 -47.79 -45.38 -45.90 -46.19 -45.70 -46.80 -45.86 -46.97 -46.43 -45.15 -46.47 -45.68 -45.73 -47.31 -45.35 -46.26 -2.32 -2.21 -1.55 -2.65 -1.55 -2.43 -1.66 -1.44 -7.95 -3.76 -41.53 
-48.41 -48.06 -49.21 -49.15 -49.01 -49.02 -47.02 -47.68 -47.88 -47.38 -48.18 -47.24 -48.37 -47.93 -46.62 -47.94 -47.48 -47.48 -48.63 -46.93 -47.60 -2.32 -1.99 -1.44 -2.43 -1.55 -2.21 -1.66 -1.44 -8.84 -4.64 -42.85 
-49.44 -49.27 -50.17 -50.28 -50.12 -50.05 -48.70 -49.54 -49.65 -49.12 -49.32 -48.58 -49.44 -49.18 -48.05 -49.30 -49.39 -49.30 -49.78 -48.71 -48.81 -2.21 -2.10 -1.44 -2.43 -1.33 -2.21 -1.66 -1.21 -8.39 -4.86 -43.52 
-50.51 -50.38 -51.13 -51.39 -51.12 -51.05 -50.28 -51.24 -51.29 -50.76 -50.24 -49.88 -50.25 -50.18 -49.42 -50.56 -51.14 -50.97 -50.88 -50.48 -49.87 -2.21 -2.10 -1.55 -2.65 -1.55 -2.21 -1.66 -1.55 -5.74 -3.31 -44.84 
-51.63 -51.49 -52.14 -52.51 -52.11 -52.03 -51.58 -52.57 -52.58 -52.12 -50.98 -51.01 -50.96 -51.02 -50.62 -51.63 -52.48 -52.26 -51.91 -51.96 -50.77 -2.21 -2.10 -1.55 -2.65 -1.55 -2.43 -1.66 -1.33 -6.63 -3.53 -47.16 
-52.65 -52.54 -53.07 -53.47 -53.07 -52.85 -52.46 -53.39 -53.42 -53.07 -51.66 -51.82 -51.66 -51.74 -51.50 -52.40 -53.30 -53.05 -52.73 -52.95 -51.52 -2.10 -2.21 -1.44 -2.54 -1.44 -2.32 -1.66 -1.44 -7.07 -4.20 -46.83 
-53.40 -53.41 -53.74 -54.10 -53.87 -53.39 -52.97 -53.79 -53.88 -53.62 -52.33 -52.34 -52.40 -52.38 -52.07 -52.91 -53.70 -53.45 -53.23 -53.45 -52.16 -2.21 -2.21 -1.55 -2.76 -1.77 -2.43 -1.66 -1.44 -8.39 -4.64 -46.06 
-53.79 -53.95 -54.10 -54.34 -54.36 -53.61 -53.29 -54.01 -54.15 -53.92 -52.93 -52.71 -53.10 -52.90 -52.48 -53.31 -53.94 -53.68 -53.43 -53.67 -52.67 -2.32 -2.21 -1.66 -2.76 -1.88 -2.43 -1.66 -1.33 -8.84 -3.53 -48.15 
-53.87 -54.15 -54.18 -54.26 -54.45 -53.59 -53.54 -54.22 -54.35 -54.12 -53.35 -53.04 -53.62 -53.25 -52.80 -53.64 -54.20 -53.89 -53.41 -53.80 -53.05 -2.32 -2.21 -1.55 -2.54 -1.55 -2.21 -1.44 -1.44 -10.16 -4.42 -48.71 
-53.78 -54.05 -54.13 -54.07 -54.25 -53.48 -53.76 -54.42 -54.50 -54.29 -53.50 -53.33 -53.88 -53.44 -53.06 -53.92 -54.52 -54.10 -53.31 -53.95 -53.28 -2.32 -2.21 -1.55 -2.43 -1.55 -2.32 -1.77 -1.55 -9.28 -3.53 -47.05 
-53.72 -53.86 -54.12 -54.01 -54.03 -53.47 -53.88 -54.55 -54.52 -54.43 -53.48 -53.56 -53.94 -53.55 -53.25 -54.12 -54.79 -54.25 -53.25 -54.12 -53.45 -2.32 -1.99 -1.55 -2.54 -1.55 -2.32 -1.66 -1.55 -8.39 -3.98 -47.38 
-53.78 -53.75 -54.18 -54.11 -53.95 -53.60 -53.85 -54.54 -54.36 -54.48 -53.44 -53.64 -53.87 -53.58 -53.32 -54.18 -54.85 -54.26 -53.25 -54.24 -53.58 -2.32 -2.21 -1.55 -2.43 -1.44 -2.21 -1.66 -1.55 -7.95 -4.20 -47.60 
-53.82 -53.76 -54.23 -54.20 -53.95 -53.72 -53.58 -54.29 -54.04 -54.36 -53.42 -53.47 -53.71 -53.45 -53.16 -54.01 -54.61 -54.01 -53.19 -54.16 -53.59 -2.21 -2.10 -1.55 -2.32 -1.44 -2.10 -1.66 -1.44 -6.63 -3.76 -46.28 
-53.65 -53.72 -54.09 -54.09 -53.84 -53.61 -53.10 -53.83 -53.60 -54.00 -53.37 -53.03 -53.44 -53.11 -52.72 -53.58 -54.07 -53.50 -52.93 -53.77 -53.38 -2.10 -2.10 -1.44 -2.54 -1.55 -2.32 -1.66 -1.44 -7.51 -4.64 -45.28 
-53.16 -53.43 -53.64 -53.60 -53.40 -53.12 -52.45 -53.15 -53.05 -53.39 -53.14 -52.35 -52.99 -52.53 -51.98 -52.92 -53.34 -52.76 -52.38 -53.07 -52.86 -2.21 -2.10 -1.44 -2.65 -1.55 -2.32 -1.66 -1.44 -7.51 -4.86 -46.39 
-52.33 -52.75 -52.80 -52.69 -52.52 -52.25 -51.66 -52.30 -52.37 -52.54 -52.54 -51.45 -52.26 -51.72 -50.99 -52.08 -52.51 -51.86 -51.48 -52.12 -52.05 -2.21 -2.10 -1.44 -2.54 -1.66 -2.32 -1.66 -1.33 -7.95 -4.42 -45.06 
-51.25 -51.67 -51.64 -51.44 -51.27 -51.10 -50.77 -51.38 -51.56 -51.55 -51.54 -50.45 -51.29 -50.75 -49.91 -51.15 -51.65 -50.94 -50.31 -51.08 -51.08 -2.21 -2.10 -1.44 -2.76 -1.88 -2.43 -1.66 -1.33 -7.95 -3.98 -44.62 
-50.06 -50.32 -50.34 -50.09 -49.91 -49.87 -49.81 -50.44 -50.63 -50.53 -50.32 -49.42 -50.23 -49.75 -48.87 -50.18 -50.78 -50.07 -49.07 -50.10 -50.11 -2.32 -2.21 -1.55 -2.65 -1.66 -2.32 -1.66 -1.44 -10.16 -4.86 -46.06 
-48.90 -48.97 -49.11 -48.85 -48.67 -48.71 -48.81 -49.45 -49.60 -49.53 -49.11 -48.37 -49.20 -48.81 -47.91 -49.19 -49.86 -49.18 -47.98 -49.16 -49.23 -2.32 -2.21 -1.66 -2.32 -1.55 -2.32 -1.66 -1.44 -7.95 -3.09 -44.51 
-47.92 -47.85 -48.09 -47.85 -47.71 -47.69 -47.80 -48.38 -48.46 -48.51 -48.06 -47.30 -48.21 -47.93 -47.02 -48.17 -48.86 -48.20 -47.12 -48.21 -48.35 -2.32 -2.10 -1.55 -2.43 -1.55 -2.10 -1.66 -1.44 -8.84 -4.20 -40.97 
-47.08 -47.03 -47.23 -46.98 -46.96 -46.76 -46.76 -47.18 -47.23 -47.40 -47.05 -46.18 -47.15 -46.95 -46.13 -47.10 -47.72 -47.05 -46.39 -47.13 -47.34 -2.21 -2.21 -1.66 -2.43 -1.55 -2.32 -1.66 -1.55 -7.95 -3.53 -40.09 
-46.08 -46.28 -46.26 -45.94 -46.09 -45.63 -45.55 -45.77 -45.86 -46.06 -45.83 -44.90 -45.83 -45.64 -45.06 -45.84 -46.36 -45.69 -45.44 -45.82 -46.00 -2.21 -2.10 -1.66 -2.32 -1.44 -2.10 -1.66 -1.33 -8.39 -4.42 -38.77 
-44.59 -45.21 -44.86 -44.47 -44.76 -44.09 -44.01 -44.13 -44.34 -44.43 -44.22 -43.36 -44.14 -43.93 -43.59 -44.23 -44.74 -44.09 -44.00 -44.25 -44.27 -2.21 -2.10 -1.44 -2.32 -1.44 -2.10 -1.66 -1.55 -6.63 -3.76 -36.12 
-42.58 -43.61 -42.94 -42.56 -42.91 -42.13 -42.16 -42.28 -42.64 -42.56 -42.30 -41.52 -42.20 -41.96 -41.66 -42.24 -42.89 -42.31 -42.08 -42.50 -42.26 -2.10 -2.10 -1.55 -2.54 -1.55 -2.32 -1.66 -1.44 -7.07 -3.98 -34.90 
-40.30 -41.57 -40.65 -40.37 -40.73 -39.92 -40.06 -40.26 -40.73 -40.55 -40.25 -39.44 -40.16 -39.94 -39.38 -39.99 -40.86 -40.35 -39.88 -40.64 -40.11 -2.21 -1.99 -1.44 -2.54 -1.55 -2.32 -1.66 -1.44 -7.95 -5.30 -33.91 
-38.02 -39.30 -38.22 -38.11 -38.45 -37.65 -37.77 -38.08 -38.60 -38.40 -38.22 -37.22 -38.12 -37.95 -36.95 -37.65 -38.64 -38.19 -37.61 -38.63 -37.95 -2.21 -2.10 -1.55 -2.54 -1.55 -2.21 -1.66 -1.44 -7.95 -4.42 -31.15 
-35.88 -36.98 -35.84 -35.86 -36.22 -35.42 -35.38 -35.78 -36.27 -36.12 -36.26 -34.94 -36.09 -35.96 -34.57 -35.35 -36.26 -35.84 -35.37 -36.42 -35.85 -2.21 -2.10 -1.55 -2.65 -1.66 -2.32 -1.55 -1.33 -8.39 -4.42 -27.94 
-33.74 -34.69 -33.55 -33.61 -33.97 -33.18 -32.91 -33.39 -33.81 -33.70 -34.23 -32.62 -33.96 -33.82 -32.23 -33.07 -33.73 -33.34 -33.13 -33.99 -33.80 -2.32 -2.21 -1.66 -2.54 -1.66 -2.32 -1.66 -1.44 -9.72 -4.64 -26.18 
-31.32 -32.33 -31.15 -31.19 -31.51 -30.74 -30.26 -30.83 -31.16 -31.02 -31.95 -30.19 -31.58 -31.42 -29.82 -30.67 -30.98 -30.66 -30.71 -31.29 -31.58 -2.54 -2.21 -1.66 -2.32 -1.55 -2.10 -1.66 -1.55 -8.39 -3.76 -23.64 
-28.52 -29.75 -28.49 -28.51 -28.71 -27.97 -27.34 -28.04 -28.25 -28.03 -29.26 -27.59 -28.86 -28.72 -27.23 -28.05 -27.98 -27.76 -27.98 -28.30 -29.01 -2.32 -2.21 -1.66 -2.43 -1.55 -2.21 -1.66 -1.44 -8.84 -3.98 -19.00 
-25.42 -26.87 -25.54 -25.57 -25.64 -24.90 -24.25 -25.08 -25.15 -24.83 -26.21 -24.86 -25.87 -25.78 -24.55 -25.28 -24.84 -24.75 -24.98 -25.14 -26.07 -2.32 -2.21 -1.66 -2.43 -1.55 -2.21 -1.77 -1.44 -7.51 -3.31 -17.23 
-22.23 -23.76 -22.45 -22.47 -22.47 -21.69 -21.20 -22.09 -22.03 -21.63 -22.99 -22.12 -22.77 -22.73 -21.90 -22.48 -21.78 -21.82 -21.86 -22.01 -22.93 -2.21 -2.10 -1.55 -2.21 -1.33 -2.10 -1.66 -1.33 -7.51 -3.53 -14.91 
-19.10 -20.60 -19.41 -19.37 -19.36 -18.56 -18.39 -19.20 -19.06 -18.65 -19.81 -19.43 -19.75 -19.67 -19.30 -19.69 -18.97 -19.07 -18.80 -19.04 -19.82 -2.21 -1.99 -1.44 -2.21 -1.33 -2.10 -1.66 -1.44 -7.51 -4.64 -11.15 
-16.14 -17.56 -16.56 -16.39 -16.40 -15.68 -15.84 -16.42 -16.25 -15.93 -16.80 -16.77 -16.86 -16.69 -16.74 -16.90 -16.39 -16.45 -15.91 -16.25 -16.89 -2.21 -1.99 -1.44 -2.43 -1.44 -2.21 -1.66 -1.44 -6.63 -3.98 -8.84 
-13.36 -14.71 -13.88 -13.54 -13.57 -13.03 -13.29 -13.65 -13.44 -13.29 -13.92 -14.02 -14.03 -13.75 -14.08 -14.04 -13.81 -13.74 -13.17 -13.52 -14.09 -2.10 -2.10 -1.44 -2.43 -1.55 -2.10 -1.66 -1.44 -6.63 -3.76 -7.95 
-10.67 -11.95 -11.20 -10.76 -10.77 -10.44 -10.45 -10.69 -10.43 -10.47 -11.04 -11.09 -11.08 -10.74 -11.22 -11.01 -10.96 -10.77 -10.45 -10.67 -11.24 -2.21 -2.21 -1.44 -2.43 -1.44 -2.21 -1.66 -1.44 -7.07 -4.64 -4.86 
-7.98 -9.19 -8.43 -7.99 -7.96 -7.76 -7.28 -7.54 -7.24 -7.43 -8.07 -8.00 -7.99 -7.65 -8.15 -7.85 -7.84 -7.55 -7.71 -7.62 -8.28 -2.21 -2.10 -1.55 -2.54 -1.66 -2.32 -1.66 -1.44 -8.84 -4.64 -1.99 
-5.24 -6.40 -5.57 -5.25 -5.17 -4.99 -4.05 -4.39 -4.07 -4.33 -5.04 -4.94 -4.85 -4.57 -5.03 -4.73 -4.65 -4.31 -4.97 -4.51 -5.23 -2.32 -2.10 -1.55 -2.54 -1.77 -2.32 -1.55 -1.44 -8.39 -3.98 -0.33 
-2.45 -3.62 -2.69 -2.49 -2.40 -2.16 -1.07 -1.45 -1.16 -1.41 -2.03 -2.05 -1.79 -1.61 -2.03 -1.78 -1.64 -1.31 -2.22 -1.54 -2.21 -2.32 -2.21 -1.66 -2.43 -1.55 -2.21 -1.55 -1.44 -8.84 -4.20 2.21 
0.34 -0.86 0.16 0.28 0.31 0.63 1.54 1.18 1.38 1.24 0.84 0.64 1.09 1.13 0.76 0.93 1.06 1.35 0.53 1.14 0.70 -2.32 -2.21 -1.66 -2.43 -1.55 -2.10 -1.66 -1.44 -8.84 -4.20 6.30 
3.00 1.83 2.90 3.00 2.93 3.27 3.87 3.54 3.66 3.64 3.48 3.19 3.67 3.57 3.33 3.48 3.47 3.70 3.22 3.52 3.34 -2.21 -2.21 -1.66 -2.43 -1.55 -2.21 -1.55 -1.44 -9.28 -4.64 9.06 
5.50 4.47 5.51 5.62 5.49 5.77 6.15 5.82 5.93 5.99 5.86 5.75 5.95 5.76 5.81 6.01 5.79 5.95 5.80 5.77 5.70 -2.21 -2.10 -1.66 -2.21 -1.33 -2.10 -1.55 -1.44 -7.95 -3.98 9.83 
7.90 7.07 8.04 8.17 8.02 8.20 8.57 8.24 8.37 8.45 8.10 8.44 8.07 7.90 8.34 8.63 8.23 8.29 8.28 8.13 7.89 -2.21 -2.10 -1.33 -2.32 -1.33 -2.10 -1.66 -1.33 -7.95 -4.42 13.14 
10.27 9.61 10.52 10.64 10.50 10.60 11.14 10.84 11.02 11.10 10.36 11.19 10.21 10.17 10.94 11.31 10.84 10.79 10.67 10.67 10.07 -2.21 -1.99 -1.44 -2.43 -1.44 -2.10 -1.55 -1.44 -6.63 -4.42 16.46 
12.67 12.07 13.00 13.08 12.92 13.05 13.75 13.56 13.76 13.86 12.75 13.92 12.55 12.65 13.58 14.00 13.57 13.43 13.02 13.34 12.44 -2.21 -1.99 -1.55 -2.54 -1.44 -2.32 -1.55 -1.55 -5.74 -3.76 18.22 
15.20 14.48 15.54 15.55 15.35 15.62 16.34 16.27 16.47 16.63 15.28 16.62 15.13 15.31 16.27 16.73 16.29 16.12 15.41 16.01 15.05 -2.21 -2.10 -1.55 -2.43 -1.44 -2.21 -1.66 -1.44 -6.63 -3.76 21.21 
17.88 16.92 18.16 18.14 17.93 18.35 18.82 18.84 19.02 19.27 17.89 19.28 17.87 18.05 19.00 19.49 18.88 18.73 17.94 18.56 17.84 -2.21 -2.10 -1.44 -2.54 -1.55 -2.32 -1.66 -1.44 -7.51 -4.20 24.08 
20.67 19.42 20.82 20.83 20.68 21.11 21.11 21.14 21.33 21.61 20.53 21.88 20.62 20.78 21.67 22.22 21.23 21.14 20.57 20.88 20.65 -2.32 -2.10 -1.66 -2.65 -1.66 -2.32 -1.55 -1.44 -7.51 -3.53 24.96 
23.40 21.95 23.43 23.53 23.48 23.73 23.24 23.19 23.43 23.64 23.13 24.34 23.28 23.44 24.19 24.85 23.34 23.31 23.21 22.98 23.37 -2.32 -2.21 -1.66 -2.43 -1.44 -2.21 -1.66 -1.44 -8.84 -4.64 27.06 
25.89 24.43 25.87 26.11 26.12 26.09 25.27 25.18 25.41 25.52 25.66 26.64 25.84 26.02 26.52 27.28 25.32 25.37 25.72 24.98 25.95 -2.21 -2.21 -1.77 -2.43 -1.44 -2.21 -1.55 -1.44 -9.28 -4.64 30.81 
28.05 26.77 28.11 28.49 28.42 28.18 27.33 27.31 27.44 27.49 28.10 28.81 28.32 28.51 28.69 29.51 27.35 27.50 28.03 27.04 28.40 -2.21 -2.10 -1.77 -2.32 -1.44 -2.21 -1.55 -1.33 -8.84 -4.20 33.02 
30.02 28.99 30.23 30.69 30.41 30.15 29.52 29.67 29.68 29.72 30.50 30.94 30.76 30.93 30.83 31.63 29.59 29.80 30.17 29.28 30.76 -2.21 -2.10 -1.66 -2.32 -1.33 -2.10 -1.55 -1.33 -7.51 -3.31 35.12 
32.03 31.17 32.32 32.83 32.32 32.17 31.84 32.16 32.09 32.16 32.90 33.08 33.17 33.30 32.98 33.71 32.00 32.21 32.24 31.69 33.08 -2.21 -2.10 -1.66 -2.21 -1.33 -2.10 -1.66 -1.33 -7.51 -4.42 38.43 
34.21 33.35 34.44 34.96 34.36 34.29 34.13 34.53 34.50 34.59 35.28 35.20 35.50 35.57 35.10 35.75 34.41 34.52 34.30 34.10 35.32 -2.10 -2.10 -1.55 -2.43 -1.44 -2.21 -1.55 -1.33 -6.63 -3.76 40.86 
36.52 35.55 36.59 37.12 36.59 36.51 36.24 36.62 36.71 36.81 37.59 37.20 37.75 37.69 37.09 37.71 36.60 36.61 36.39 36.33 37.47 -2.21 -2.10 -1.55 -2.54 -1.55 -2.21 -1.66 -1.33 -7.51 -3.98 41.53 
38.80 37.78 38.78 39.28 38.94 38.73 38.18 38.47 38.68 38.76 39.75 39.03 39.89 39.66 38.88 39.52 38.54 38.48 38.49 38.31 39.53 -2.10 -2.10 -1.55 -2.43 -1.55 -2.21 -1.66 -1.33 -6.63 -3.53 43.40 
40.88 40.01 40.94 41.36 41.19 40.80 40.01 40.23 40.49 40.52 41.66 40.67 41.83 41.43 40.46 41.18 40.31 40.19 40.52 40.04 41.39 -2.21 -2.10 -1.55 -2.65 -1.66 -2.43 -1.55 -1.33 -7.95 -4.20 44.62 
42.64 42.11 42.91 43.23 43.11 42.59 41.74 41.97 42.23 42.17 43.22 42.10 43.42 42.94 41.86 42.70 41.99 41.79 42.38 41.59 42.94 -2.32 -2.10 -1.55 -2.65 -1.77 -2.32 -1.55 -1.33 -9.28 -4.86 44.62 
44.08 43.94 44.57 44.82 44.60 44.06 43.33 43.60 43.86 43.71 44.42 43.41 44.60 44.16 43.20 44.15 43.56 43.26 43.99 43.02 44.12 -2.21 -2.21 -1.55 -2.43 -1.55 -2.21 -1.66 -1.33 -8.39 -3.76 46.50 
45.26 45.42 45.90 46.07 45.70 45.26 44.63 44.98 45.27 45.06 45.35 44.68 45.46 45.13 44.53 45.54 44.92 44.58 45.30 44.35 44.96 -2.21 -2.21 -1.66 -2.54 -1.44 -2.21 -1.66 -1.55 -9.28 -4.42 48.82 
46.27 46.56 46.97 47.01 46.56 46.28 45.58 46.03 46.37 46.11 46.18 45.88 46.16 45.97 45.81 46.78 46.03 45.69 46.32 45.55 45.64 -2.32 -2.21 -1.55 -2.43 -1.55 -2.21 -1.66 -1.44 -10.60 -5.08 49.70 
47.24 47.50 47.91 47.77 47.38 47.26 46.28 46.85 47.18 46.89 47.09 46.99 46.93 46.88 46.96 47.81 46.92 46.60 47.17 46.59 46.39 -2.10 -2.10 -1.55 -2.32 -1.33 -2.10 -1.66 -1.44 -8.39 -3.76 50.25 
48.22 48.36 48.81 48.52 48.24 48.22 46.86 47.58 47.79 47.49 48.17 47.98 47.90 47.96 47.98 48.65 47.66 47.33 47.97 47.41 47.34 -2.21 -1.99 -1.55 -2.32 -1.44 -1.99 -1.55 -1.33 -8.39 -5.08 52.02 
49.13 49.15 49.63 49.29 49.08 49.11 47.40 48.27 48.30 48.02 49.29 48.85 48.97 49.10 48.87 49.36 48.23 47.90 48.72 47.98 48.45 -2.21 -1.99 -1.44 -2.54 -1.55 -2.21 -1.66 -1.44 -7.95 -4.42 52.35 
49.81 49.81 50.25 49.98 49.77 49.81 47.94 48.88 48.74 48.54 50.26 49.56 49.95 50.10 49.62 49.99 48.66 48.37 49.35 48.36 49.55 -2.10 -1.99 -1.44 -2.54 -1.66 -2.21 -1.55 -1.44 -7.51 -4.64 50.36 
50.14 50.25 50.57 50.45 50.17 50.16 48.43 49.31 49.08 48.99 50.92 50.07 50.66 50.78 50.12 50.52 48.99 48.76 49.72 48.63 50.43 -2.10 -1.99 -1.55 -2.54 -1.55 -2.10 -1.66 -1.44 -7.95 -4.42 50.36 
50.04 50.38 50.49 50.52 50.20 50.06 48.70 49.43 49.18 49.21 51.17 50.27 50.95 51.02 50.22 50.79 49.17 48.96 49.69 48.75 50.85 -2.21 -2.10 -1.55 -2.65 -1.66 -2.32 -1.66 -1.44 -8.39 -4.64 50.91 
49.59 50.12 50.01 50.16 49.84 49.50 48.62 49.18 48.96 49.09 50.99 50.15 50.76 50.77 49.87 50.73 49.11 48.84 49.23 48.65 50.68 -2.32 -2.21 -1.55 -2.65 -1.66 -2.32 -1.55 -1.44 -8.39 -3.53 49.70 
49.03 49.55 49.32 49.51 49.25 48.70 48.26 48.71 48.55 48.69 50.49 49.82 50.22 50.20 49.27 50.42 48.80 48.42 48.53 48.37 50.08 -2.32 -2.21 -1.55 -2.43 -1.55 -2.21 -1.55 -1.44 -8.84 -3.98 50.69 
48.56 48.93 48.68 48.86 48.66 47.97 47.83 48.27 48.20 48.21 49.89 49.45 49.60 49.54 48.72 50.05 48.39 47.92 47.89 48.05 49.36 -2.43 -2.21 -1.55 -2.43 -1.44 -2.21 -1.66 -1.33 -9.28 -3.98 51.25 
48.25 48.47 48.26 48.35 48.22 47.51 47.54 48.01 48.05 47.82 49.32 49.10 49.03 48.99 48.41 49.72 48.01 47.54 47.46 47.81 48.78 -2.32 -2.10 -1.77 -2.54 -1.44 -2.32 -1.66 -1.44 -9.72 -3.98 49.81 
47.95 48.17 47.97 47.99 47.91 47.26 47.32 47.84 47.97 47.51 48.77 48.77 48.52 48.53 48.26 49.41 47.71 47.31 47.20 47.59 48.36 -2.32 -2.10 -1.77 -2.32 -1.33 -2.10 -1.55 -1.44 -7.07 -3.31 49.81 
47.46 47.86 47.58 47.58 47.52 46.97 46.94 47.48 47.65 47.08 48.17 48.32 47.99 48.07 48.00 49.00 47.32 46.98 46.88 47.21 47.93 -2.21 -1.88 -1.55 -2.43 -1.44 -2.21 -1.55 -1.33 -7.07 -4.42 50.69 
46.65 47.28 46.91 46.93 46.88 46.38 46.19 46.71 46.90 46.37 47.42 47.62 47.37 47.49 47.39 48.37 46.68 46.33 46.29 46.49 47.32 -2.10 -2.10 -1.44 -2.65 -1.44 -2.32 -1.66 -1.33 -7.51 -4.42 50.14 
45.65 46.38 45.97 46.03 45.99 45.50 45.11 45.61 45.81 45.38 46.59 46.72 46.70 46.75 46.46 47.53 45.73 45.35 45.44 45.47 46.54 -2.10 -2.10 -1.44 -2.54 -1.55 -2.32 -1.55 -1.44 -7.51 -4.86 47.82 
44.67 45.33 44.95 45.03 45.01 44.51 43.90 44.42 44.64 44.26 45.74 45.76 45.99 45.90 45.45 46.56 44.62 44.20 44.50 44.36 45.68 -2.21 -2.10 -1.44 -2.54 -1.55 -2.32 -1.66 -1.33 -7.51 -4.64 47.16 
43.79 44.33 43.97 44.04 44.04 43.53 42.71 43.32 43.53 43.15 44.85 44.77 45.13 44.89 44.48 45.46 43.46 43.03 43.55 43.31 44.73 -2.21 -2.10 -1.55 -2.65 -1.66 -2.43 -1.66 -1.44 -8.84 -4.64 46.50 
42.94 43.41 43.00 43.04 43.05 42.53 41.59 42.31 42.46 42.06 43.80 43.65 44.00 43.69 43.45 44.16 42.31 41.87 42.56 42.31 43.59 -2.32 -2.10 -1.55 -2.76 -1.55 -2.43 -1.55 -1.33 -8.39 -3.76 43.63 
41.94 42.45 41.91 41.91 41.95 41.40 40.50 41.28 41.32 40.95 42.53 42.29 42.59 42.37 42.19 42.63 41.15 40.73 41.44 41.21 42.25 -2.32 -2.21 -1.55 -2.54 -1.44 -2.21 -1.66 -1.21 -7.95 -3.31 41.97 
40.65 41.28 40.57 40.54 40.62 40.03 39.31 40.03 39.97 39.68 41.04 40.69 40.99 40.98 40.63 40.93 39.85 39.52 40.08 39.85 40.73 -2.43 -2.21 -1.66 -2.54 -1.55 -2.32 -1.66 -1.44 -7.95 -4.20 42.30 
38.97 39.76 38.90 38.84 39.00 38.34 37.83 38.40 38.28 38.07 39.34 38.93 39.20 39.46 38.82 39.15 38.25 38.10 38.43 38.08 39.03 -2.32 -2.10 -1.55 -2.65 -1.55 -2.32 -1.55 -1.44 -7.95 -3.31 39.54 
36.98 37.88 36.94 36.83 37.12 36.35 35.97 36.35 36.24 36.09 37.42 37.09 37.20 37.68 36.92 37.38 36.30 36.34 36.49 35.95 37.14 -2.32 -2.10 -1.44 -2.43 -1.44 -2.21 -1.66 -1.21 -6.63 -3.09 37.00 
34.77 35.71 34.80 34.62 35.03 34.16 33.80 34.03 34.00 33.85 35.26 35.15 34.97 35.52 34.98 35.54 34.07 34.25 34.33 33.64 35.00 -2.21 -2.10 -1.44 -2.43 -1.44 -2.21 -1.55 -1.44 -6.63 -3.76 36.56 
32.41 33.39 32.52 32.27 32.78 31.85 31.48 31.66 31.70 31.52 32.84 32.97 32.54 32.94 32.89 33.44 31.73 31.97 31.98 31.35 32.57 -2.10 -2.10 -1.44 -2.65 -1.55 -2.43 -1.66 -1.33 -6.63 -3.76 34.02 
29.94 31.02 30.14 29.90 30.39 29.51 29.19 29.39 29.50 29.27 30.24 30.53 29.98 30.09 30.55 30.98 29.43 29.65 29.52 29.18 29.92 -2.32 -2.10 -1.55 -2.65 -1.66 -2.43 -1.55 -1.33 -7.07 -4.42 29.71 
27.44 28.68 27.71 27.55 27.91 27.19 27.00 27.27 27.37 27.10 27.58 27.94 27.42 27.20 28.02 28.31 27.20 27.39 27.04 27.10 27.22 -2.21 -2.10 -1.55 -2.54 -1.55 -2.32 -1.55 -1.33 -7.07 -4.20 27.83 
24.93 26.34 25.22 25.15 25.34 24.81 24.78 25.11 25.15 24.84 24.91 25.30 24.87 24.45 25.37 25.60 24.93 25.09 24.56 24.93 24.60 -2.32 -2.10 -1.55 -2.76 -1.77 -2.54 -1.55 -1.44 -8.84 -5.08 25.07 
22.36 23.87 22.60 22.56 22.66 22.27 22.30 22.67 22.60 22.26 22.23 22.60 22.28 21.86 22.60 22.87 22.46 22.58 22.01 22.47 22.07 -2.32 -2.21 -1.66 -2.76 -1.77 -2.43 -1.66 -1.44 -9.28 -3.98 21.87 
19.69 21.21 19.86 19.75 19.88 19.56 19.47 19.86 19.70 19.34 19.59 19.82 19.68 19.36 19.77 20.11 19.73 19.80 19.33 19.66 19.59 -2.32 -2.21 -1.66 -2.65 -1.66 -2.43 -1.66 -1.33 -7.95 -3.09 19.33 
16.92 18.43 17.04 16.82 17.03 16.77 16.43 16.84 16.64 16.30 17.01 17.02 17.11 16.87 16.95 17.32 16.83 16.84 16.52 16.65 17.09 -2.32 -2.10 -1.66 -2.54 -1.66 -2.32 -1.66 -1.44 -9.28 -4.42 16.90 
14.06 15.62 14.16 13.88 14.13 13.93 13.36 13.83 13.67 13.39 14.45 14.25 14.50 14.30 14.19 14.51 13.88 13.85 13.63 13.67 14.49 -2.32 -2.10 -1.66 -2.65 -1.66 -2.32 -1.66 -1.44 -9.72 -4.64 14.36 
11.15 12.83 11.21 10.98 11.17 11.04 10.46 10.97 10.92 10.70 11.91 11.52 11.83 11.65 11.47 11.68 10.98 10.95 10.73 10.87 11.81 -2.21 -2.10 -1.66 -2.43 -1.44 -2.21 -1.66 -1.44 -8.84 -4.20 12.26 
8.25 9.99 8.21 8.08 8.18 8.11 7.78 8.26 8.36 8.15 9.39 8.79 9.15 9.02 8.72 8.80 8.21 8.21 7.86 8.29 9.14 -2.21 -2.10 -1.66 -2.65 -1.44 -2.21 -1.55 -1.44 -6.63 -3.76 10.71 
5.41 7.09 5.26 5.19 5.24 5.19 5.27 5.65 5.88 5.62 6.87 5.97 6.52 6.43 5.87 5.84 5.58 5.60 5.09 5.84 6.55 -2.21 -1.99 -1.55 -2.76 -1.66 -2.32 -1.66 -1.44 -6.63 -3.76 7.84 
2.68 4.19 2.48 2.36 2.42 2.37 2.81 3.04 3.35 3.01 4.27 3.04 3.95 3.85 2.95 2.87 3.02 3.08 2.44 3.39 3.99 -2.21 -1.88 -1.55 -2.76 -1.66 -2.32 -1.55 -1.33 -5.74 -3.31 3.42 
0.02 1.42 -0.15 -0.37 -0.24 -0.34 0.29 0.38 0.68 0.32 1.49 0.04 1.36 1.20 0.08 -0.04 0.45 0.54 -0.11 0.82 1.35 -2.21 -2.10 -1.55 -2.65 -1.66 -2.32 -1.66 -1.44 -6.18 -3.98 0.77 
-2.71 -1.26 -2.79 -3.10 -2.88 -3.11 -2.41 -2.40 -2.20 -2.47 -1.54 -2.94 -1.44 -1.64 -2.72 -2.90 -2.29 -2.11 -2.73 -1.95 -1.51 -2.32 -2.21 -1.66 -2.76 -1.66 -2.43 -1.55 -1.33 -7.95 -4.42 -1.10 
-5.59 -4.02 -5.60 -5.90 -5.63 -6.07 -5.34 -5.35 -5.25 -5.37 -4.77 -5.80 -4.56 -4.73 -5.41 -5.69 -5.24 -4.95 -5.56 -4.95 -4.61 -2.32 -2.10 -1.55 -2.76 -1.77 -2.54 -1.66 -1.33 -8.84 -4.64 -4.86 
-8.53 -6.93 -8.52 -8.72 -8.45 -9.08 -8.37 -8.37 -8.33 -8.35 -8.01 -8.41 -7.81 -7.90 -7.93 -8.33 -8.29 -7.92 -8.54 -8.04 -7.76 -2.32 -2.10 -1.66 -2.65 -1.66 -2.32 -1.55 -1.44 -8.39 -4.20 -6.96 
-11.33 -9.87 -11.35 -11.44 -11.19 -11.88 -11.31 -11.28 -11.24 -11.28 -11.02 -10.75 -10.86 -10.92 -10.23 -10.78 -11.23 -10.84 -11.45 -11.03 -10.68 -2.43 -2.10 -1.66 -2.54 -1.55 -2.32 -1.66 -1.44 -9.28 -4.20 -7.51 
-13.86 -12.62 -13.91 -13.96 -13.72 -14.31 -14.01 -13.92 -13.90 -14.02 -13.69 -12.98 -13.52 -13.66 -12.44 -13.08 -13.91 -13.55 -14.09 -13.78 -13.29 -2.32 -2.10 -1.66 -2.65 -1.55 -2.43 -1.66 -1.44 -8.84 -4.20 -11.04 
-16.15 -15.04 -16.22 -16.29 -16.03 -16.45 -16.47 -16.31 -16.37 -16.53 -16.12 -15.33 -15.89 -16.15 -14.76 -15.42 -16.33 -16.04 -16.44 -16.30 -15.69 -2.32 -2.10 -1.55 -2.43 -1.33 -2.32 -1.66 -1.44 -8.39 -4.42 -14.14 
-18.39 -17.25 -18.50 -18.59 -18.27 -18.55 -18.86 -18.67 -18.86 -18.93 -18.53 -17.92 -18.25 -18.57 -17.36 -17.97 -18.70 -18.49 -18.69 -18.75 -18.11 -2.10 -2.10 -1.55 -2.43 -1.44 -2.32 -1.66 -1.44 -6.63 -4.20 -15.57 
-20.77 -19.50 -20.96 -21.05 -20.64 -20.87 -21.38 -21.23 -21.53 -21.42 -21.10 -20.73 -20.86 -21.13 -20.22 -20.79 -21.23 -21.10 -21.09 -21.31 -20.72 -2.21 -2.10 -1.55 -2.65 -1.55 -2.32 -1.66 -1.44 -5.74 -3.76 -17.67 
-23.34 -21.95 -23.61 -23.71 -23.21 -23.40 -24.05 -24.00 -24.32 -24.06 -23.80 -23.53 -23.67 -23.82 -23.10 -23.73 -23.92 -23.82 -23.70 -23.98 -23.48 -2.21 -2.10 -1.44 -2.76 -1.66 -2.43 -1.66 -1.44 -6.18 -4.20 -21.65 
-25.91 -24.52 -26.22 -26.37 -25.86 -25.95 -26.63 -26.72 -26.96 -26.66 -26.36 -26.10 -26.39 -26.42 -25.72 -26.49 -26.51 -26.40 -26.30 -26.54 -26.14 -2.21 -2.10 -1.55 -2.76 -1.55 -2.43 -1.66 -1.44 -6.63 -4.20 -24.41 
-28.34 -27.03 -28.67 -28.88 -28.41 -28.37 -28.95 -29.13 -29.28 -29.02 -28.63 -28.44 -28.78 -28.75 -28.05 -28.97 -28.82 -28.67 -28.73 -28.82 -28.52 -2.32 -2.10 -1.55 -2.76 -1.77 -2.43 -1.66 -1.44 -7.51 -4.42 -27.06 
-30.66 -29.45 -30.99 -31.25 -30.84 -30.71 -31.06 -31.24 -31.34 -31.16 -30.66 -30.74 -30.87 -30.82 -30.29 -31.30 -30.92 -30.74 -31.01 -30.84 -30.66 -2.32 -2.21 -1.55 -2.87 -1.66 -2.43 -1.66 -1.44 -9.28 -4.64 -30.26 
-32.96 -31.86 -33.35 -33.58 -33.20 -33.09 -33.11 -33.22 -33.35 -33.19 -32.63 -33.16 -32.81 -32.72 -32.68 -33.68 -32.99 -32.80 -33.25 -32.78 -32.68 -2.32 -2.21 -1.66 -2.76 -1.66 -2.32 -1.66 -1.44 -10.60 -4.86 -31.81 
-35.32 -34.27 -35.76 -35.90 -35.53 -35.52 -35.21 -35.26 -35.44 -35.26 -34.63 -35.67 -34.74 -34.60 -35.23 -36.16 -35.14 -34.95 -35.50 -34.76 -34.67 -2.32 -2.21 -1.66 -2.65 -1.55 -2.21 -1.66 -1.55 -9.72 -4.20 -32.58 
-37.65 -36.62 -38.11 -38.15 -37.82 -37.82 -37.31 -37.39 -37.55 -37.33 -36.64 -38.10 -36.77 -36.53 -37.78 -38.64 -37.26 -37.12 -37.69 -36.81 -36.68 -2.21 -2.10 -1.66 -2.65 -1.55 -2.32 -1.55 -1.44 -7.95 -3.53 -35.78 
-39.83 -38.79 -40.27 -40.23 -39.97 -39.86 -39.26 -39.49 -39.54 -39.32 -38.67 -40.29 -38.90 -38.53 -40.09 -40.90 -39.21 -39.15 -39.74 -38.78 -38.71 -2.32 -2.10 -1.55 -2.43 -1.44 -2.21 -1.55 -1.44 -7.95 -4.20 -38.21 
-41.79 -40.78 -42.26 -42.15 -41.95 -41.68 -41.00 -41.42 -41.30 -41.11 -40.73 -42.17 -41.09 -40.61 -42.03 -42.86 -40.92 -40.94 -41.70 -40.57 -40.76 -2.21 -2.10 -1.44 -2.43 -1.55 -2.21 -1.55 -1.44 -6.63 -3.76 -37.99 
-43.60 -42.69 -44.14 -44.01 -43.82 -43.45 -42.56 -43.09 -42.85 -42.67 -42.82 -43.82 -43.28 -42.75 -43.64 -44.56 -42.48 -42.53 -43.66 -42.19 -42.81 -2.21 -2.10 -1.44 -2.65 -1.55 -2.32 -1.66 -1.44 -6.63 -4.20 -38.99 
-45.28 -44.55 -45.87 -45.82 -45.55 -45.22 -43.99 -44.49 -44.24 -44.03 -44.79 -45.31 -45.29 -44.81 -45.04 -46.07 -43.97 -43.96 -45.58 -43.69 -44.71 -2.32 -2.10 -1.44 -2.65 -1.66 -2.32 -1.66 -1.44 -5.30 -3.31 -42.52 
-46.78 -46.25 -47.30 -47.43 -47.05 -46.82 -45.31 -45.68 -45.51 -45.27 -46.43 -46.59 -46.92 -46.54 -46.31 -47.40 -45.41 -45.26 -47.21 -45.11 -46.28 -2.21 -2.10 -1.55 -2.54 -1.66 -2.43 -1.66 -1.44 -6.18 -3.76 -42.63 
-48.03 -47.65 -48.41 -48.70 -48.23 -48.11 -46.57 -46.80 -46.74 -46.52 -47.67 -47.69 -48.14 -47.83 -47.50 -48.57 -46.81 -46.53 -48.41 -46.53 -47.48 -2.32 -2.21 -1.55 -2.87 -1.77 -2.54 -1.66 -1.44 -7.51 -3.98 -43.85 
-49.06 -48.73 -49.29 -49.66 -49.16 -49.07 -47.79 -47.97 -47.99 -47.83 -48.62 -48.66 -49.08 -48.78 -48.64 -49.62 -48.18 -47.84 -49.22 -47.96 -48.45 -2.32 -2.10 -1.66 -2.76 -1.66 -2.43 -1.66 -1.44 -7.95 -3.31 -46.17 
-49.93 -49.56 -50.07 -50.42 -49.90 -49.82 -48.90 -49.14 -49.21 -49.12 -49.47 -49.63 -49.92 -49.57 -49.74 -50.62 -49.43 -49.14 -49.83 -49.29 -49.36 -2.32 -2.21 -1.66 -2.65 -1.55 -2.32 -1.66 -1.55 -8.84 -3.76 -47.27 
-50.73 -50.27 -50.82 -51.09 -50.59 -50.49 -49.82 -50.17 -50.27 -50.20 -50.41 -50.68 -50.73 -50.38 -50.80 -51.61 -50.46 -50.28 -50.42 -50.36 -50.31 -2.32 -2.21 -1.55 -2.54 -1.66 -2.32 -1.66 -1.44 -8.39 -3.53 -46.72 
-51.53 -50.95 -51.56 -51.78 -51.30 -51.19 -50.56 -51.00 -51.09 -51.01 -51.45 -51.79 -51.56 -51.29 -51.79 -52.61 -51.22 -51.15 -51.10 -51.12 -51.30 -2.21 -2.10 -1.66 -2.54 -1.66 -2.32 -1.66 -1.55 -6.63 -2.65 -47.82 
-52.27 -51.64 -52.28 -52.46 -52.03 -51.89 -51.14 -51.61 -51.67 -51.58 -52.44 -52.78 -52.33 -52.19 -52.60 -53.51 -51.73 -51.70 -51.79 -51.64 -52.19 -2.21 -2.21 -1.66 -2.43 -1.44 -2.21 -1.66 -1.44 -6.18 -2.87 -48.49 
-52.87 -52.28 -52.94 -53.06 -52.67 -52.50 -51.59 -52.07 -52.07 -52.01 -53.12 -53.43 -52.92 -52.92 -53.12 -54.16 -52.11 -52.01 -52.37 -52.00 -52.84 -2.21 -2.21 -1.44 -2.43 -1.44 -2.21 -1.55 -1.44 -7.07 -3.98 -47.82 
-53.26 -52.85 -53.48 -53.47 -53.11 -52.96 -51.89 -52.40 -52.36 -52.42 -53.38 -53.66 -53.28 -53.37 -53.34 -54.47 -52.45 -52.18 -52.72 -52.30 -53.16 -2.21 -1.99 -1.55 -2.54 -1.55 -2.32 -1.66 -1.33 -6.18 -3.53 -47.27 
-53.41 -53.29 -53.76 -53.60 -53.30 -53.22 -52.05 -52.61 -52.59 -52.76 -53.29 -53.55 -53.40 -53.50 -53.30 -54.45 -52.73 -52.30 -52.80 -52.53 -53.20 -2.21 -2.10 -1.44 -2.54 -1.66 -2.32 -1.66 -1.44 -6.18 -4.20 -49.48 
-53.32 -53.50 -53.71 -53.44 -53.22 -53.19 -52.06 -52.67 -52.75 -52.95 -52.98 -53.24 -53.30 -53.33 -53.09 -54.17 -52.89 -52.39 -52.65 -52.66 -53.01 -2.21 -2.10 -1.44 -2.54 -1.55 -2.21 -1.66 -1.33 -7.07 -3.76 -49.48 
-53.03 -53.41 -53.39 -53.11 -52.96 -52.89 -51.99 -52.56 -52.78 -52.91 -52.64 -52.91 -53.05 -52.98 -52.84 -53.79 -52.85 -52.40 -52.39 -52.67 -52.71 -2.10 -2.10 -1.55 -2.65 -1.77 -2.43 -1.55 -1.44 -7.95 -4.42 -48.49 
-52.64 -53.10 -52.97 -52.77 -52.64 -52.42 -51.85 -52.31 -52.63 -52.62 -52.32 -52.64 -52.71 -52.55 -52.61 -53.45 -52.58 -52.26 -52.16 -52.51 -52.36 -2.32 -2.10 -1.55 -2.65 -1.66 -2.43 -1.66 -1.55 -10.16 -4.64 -48.60 
-52.18 -52.68 -52.48 -52.40 -52.28 -51.81 -51.55 -51.87 -52.19 -52.07 -51.97 -52.30 -52.19 -52.03 -52.30 -53.07 -52.04 -51.89 -51.91 -52.12 -51.87 -2.32 -2.32 -1.66 -2.54 -1.55 -2.21 -1.66 -1.55 -9.28 -3.98 -48.04 
-51.58 -52.14 -51.84 -51.82 -51.74 -51.03 -50.98 -51.23 -51.44 -51.28 -51.43 -51.63 -51.42 -51.35 -51.70 -52.44 -51.26 -51.28 -51.45 -51.47 -51.14 -2.32 -2.21 -1.66 -2.54 -1.55 -2.21 -1.66 -1.33 -9.28 -4.20 -45.72 
-50.77 -51.39 -50.94 -50.92 -50.89 -50.09 -50.11 -50.37 -50.46 -50.31 -50.57 -50.53 -50.39 -50.44 -50.67 -51.39 -50.30 -50.47 -50.62 -50.61 -50.10 -2.43 -2.21 -1.66 -2.54 -1.55 -2.21 -1.66 -1.44 -9.72 -4.42 -45.39 
-49.70 -50.36 -49.78 -49.72 -49.73 -49.01 -48.95 -49.29 -49.31 -49.25 -49.38 -49.15 -49.17 -49.29 -49.31 -49.99 -49.20 -49.47 -49.42 -49.57 -48.83 -2.32 -2.10 -1.66 -2.32 -1.44 -2.10 -1.77 -1.44 -8.39 -3.76 -45.39 
-48.46 -49.13 -48.47 -48.39 -48.38 -47.90 -47.63 -47.99 -48.04 -48.10 -48.00 -47.82 -47.88 -47.99 -47.88 -48.55 -47.95 -48.25 -48.01 -48.35 -47.48 -2.21 -2.10 -1.55 -2.32 -1.44 -2.10 -1.66 -1.44 -5.74 -3.09 -43.40 
-47.18 -47.83 -47.11 -47.14 -47.04 -46.82 -46.29 -46.55 -46.71 -46.89 -46.67 -46.74 -46.64 -46.68 -46.64 -47.32 -46.60 -46.87 -46.62 -46.98 -46.23 -2.21 -1.99 -1.33 -2.54 -1.44 -2.21 -1.66 -1.44 -7.07 -4.42 -42.19 
-45.94 -46.54 -45.76 -46.00 -45.84 -45.71 -44.97 -45.07 -45.31 -45.59 -45.50 -45.76 -45.44 -45.41 -45.54 -46.24 -45.18 -45.40 -45.31 -45.51 -45.11 -1.99 -2.10 -1.44 -2.54 -1.55 -2.32 -1.66 -1.44 -5.74 -3.09 -42.63 
-44.70 -45.23 -44.40 -44.78 -44.70 -44.43 -43.58 -43.56 -43.82 -44.17 -44.40 -44.54 -44.22 -44.16 -44.26 -45.01 -43.72 -43.88 -44.01 -43.97 -44.02 -2.21 -1.99 -1.44 -2.43 -1.55 -2.21 -1.55 -1.33 -6.63 -3.98 -40.75 
-43.37 -43.79 -43.06 -43.37 -43.48 -42.92 -42.02 -42.05 -42.24 -42.62 -43.17 -42.89 -42.91 -42.83 -42.61 -43.39 -42.23 -42.33 -42.62 -42.37 -42.79 -2.21 -2.21 -1.55 -2.76 -1.66 -2.32 -1.66 -1.44 -7.51 -3.76 -38.55 
-41.84 -42.17 -41.73 -41.74 -42.05 -41.22 -40.29 -40.51 -40.61 -40.94 -41.63 -40.92 -41.48 -41.32 -40.62 -41.40 -40.70 -40.73 -41.05 -40.73 -41.30 -2.32 -2.10 -1.55 -2.65 -1.66 -2.43 -1.66 -1.44 -7.95 -3.53 -36.78 
-40.01 -40.36 -40.24 -39.87 -40.28 -39.35 -38.45 -38.88 -38.90 -39.10 -39.71 -38.82 -39.77 -39.52 -38.40 -39.22 -39.06 -39.00 -39.23 -38.97 -39.42 -2.32 -2.10 -1.66 -2.43 -1.55 -2.21 -1.55 -1.44 -10.16 -4.20 -34.46 
-37.87 -38.33 -38.37 -37.75 -38.12 -37.25 -36.51 -37.05 -37.05 -37.10 -37.42 -36.70 -37.68 -37.39 -36.12 -36.99 -37.24 -37.04 -37.12 -37.02 -37.18 -2.54 -2.21 -1.77 -2.43 -1.55 -2.10 -1.66 -1.33 -8.39 -3.53 -31.48 
-35.50 -36.10 -36.02 -35.40 -35.66 -34.93 -34.46 -34.92 -34.97 -34.94 -34.91 -34.51 -35.23 -35.03 -33.85 -34.77 -35.17 -34.78 -34.79 -34.87 -34.70 -2.32 -2.21 -1.77 -2.54 -1.55 -2.21 -1.66 -1.33 -8.39 -3.98 -29.82 
-33.05 -33.76 -33.38 -32.93 -33.04 -32.46 -32.19 -32.50 -32.62 -32.58 -32.29 -32.16 -32.57 -32.57 -31.60 -32.47 -32.79 -32.24 -32.40 -32.53 -32.18 -2.32 -1.99 -1.55 -2.21 -1.33 -2.10 -1.66 -1.33 -7.07 -3.53 -26.84 
-30.60 -31.41 -30.70 -30.44 -30.43 -29.94 -29.66 -29.89 -30.03 -30.00 -29.67 -29.63 -29.88 -30.05 -29.33 -29.98 -30.16 -29.53 -30.02 -30.03 -29.71 -2.32 -2.10 -1.44 -2.21 -1.33 -2.10 -1.66 -1.33 -6.63 -3.76 -22.75 
-28.12 -29.07 -28.09 -27.91 -27.84 -27.37 -26.99 -27.26 -27.35 -27.29 -27.10 -27.05 -27.29 -27.48 -27.00 -27.33 -27.43 -26.85 -27.62 -27.47 -27.28 -2.21 -2.10 -1.44 -2.54 -1.55 -2.32 -1.55 -1.33 -6.63 -3.98 -21.09 
-25.45 -26.58 -25.44 -25.24 -25.16 -24.62 -24.29 -24.70 -24.69 -24.58 -24.55 -24.53 -24.71 -24.82 -24.58 -24.60 -24.69 -24.31 -25.03 -24.89 -24.76 -2.21 -2.10 -1.55 -2.54 -1.44 -2.21 -1.66 -1.33 -6.18 -3.76 -21.54 
-22.57 -23.84 -22.62 -22.40 -22.33 -21.69 -21.66 -22.18 -22.07 -21.94 -21.93 -22.04 -22.01 -22.06 -22.03 -21.86 -21.98 -21.86 -22.22 -22.30 -22.06 -2.21 -2.10 -1.66 -2.43 -1.44 -2.21 -1.66 -1.33 -6.63 -4.20 -18.44 
-19.66 -20.98 -19.73 -19.56 -19.50 -18.80 -19.15 -19.67 -19.50 -19.42 -19.28 -19.51 -19.23 -19.30 -19.36 -19.17 -19.32 -19.42 -19.39 -19.68 -19.28 -2.21 -2.10 -1.55 -2.54 -1.66 -2.32 -1.66 -1.44 -8.84 -4.86 -14.47 
-16.95 -18.27 -16.96 -16.88 -16.82 -16.18 -16.68 -17.14 -16.90 -16.96 -16.68 -16.83 -16.54 -16.66 -16.62 -16.52 -16.69 -16.90 -16.72 -17.04 -16.56 -2.32 -2.10 -1.55 -2.65 -1.66 -2.32 -1.66 -1.44 -9.28 -4.20 -11.60 
-14.37 -15.77 -14.25 -14.24 -14.19 -13.72 -14.05 -14.40 -14.06 -14.32 -14.11 -13.93 -13.94 -14.05 -13.74 -13.80 -13.95 -14.15 -14.11 -14.25 -13.90 -2.21 -2.21 -1.77 -2.54 -1.55 -2.21 -1.44 -1.44 -9.28 -4.20 -8.61 
-11.64 -13.21 -11.37 -11.37 -11.36 -11.05 -11.05 -11.28 -10.85 -11.26 -11.41 -10.84 -11.30 -11.27 -10.69 -10.88 -10.91 -11.04 -11.27 -11.18 -11.15 -2.21 -2.21 -1.66 -2.54 -1.55 -2.21 -1.55 -1.55 -8.39 -3.53 -4.53 
-8.57 -10.27 -8.17 -8.18 -8.19 -7.94 -7.72 -7.81 -7.39 -7.80 -8.49 -7.69 -8.49 -8.28 -7.54 -7.77 -7.57 -7.66 -8.07 -7.86 -8.27 -2.32 -2.10 -1.55 -2.43 -1.55 -2.21 -1.66 -1.44 -7.51 -3.31 -2.54 
-5.24 -6.92 -4.78 -4.81 -4.79 -4.52 -4.34 -4.32 -4.02 -4.28 -5.47 -4.66 -5.54 -5.19 -4.44 -4.60 -4.17 -4.31 -4.65 -4.52 -5.32 -2.32 -2.10 -1.66 -2.32 -1.33 -2.10 -1.66 -1.33 -7.51 -3.76 0.00 
-1.94 -3.43 -1.50 -1.54 -1.45 -1.15 -1.24 -1.19 -1.04 -1.11 -2.50 -1.82 -2.57 -2.16 -1.55 -1.54 -1.04 -1.31 -1.33 -1.43 -2.43 -2.21 -2.10 -1.55 -2.32 -1.44 -1.99 -1.55 -1.33 -6.18 -3.31 3.98 
1.08 -0.18 1.47 1.44 1.60 1.86 1.43 1.47 1.51 1.55 0.35 0.87 0.34 0.72 1.12 1.29 1.62 1.25 1.69 1.29 0.37 -2.21 -1.88 -1.55 -2.43 -1.55 -2.21 -1.66 -1.33 -6.18 -3.76 6.18 
3.80 2.71 4.16 4.21 4.36 4.51 3.83 3.86 3.88 3.92 3.23 3.55 3.29 3.57 3.73 3.95 3.99 3.62 4.44 3.80 3.20 -2.10 -1.99 -1.55 -2.32 -1.55 -2.21 -1.66 -1.33 -5.74 -3.76 7.18 
6.43 5.37 6.78 6.98 7.00 7.06 6.25 6.34 6.38 6.36 6.30 6.35 6.37 6.52 6.43 6.58 6.40 6.15 7.10 6.34 6.17 -2.10 -1.99 -1.44 -2.43 -1.44 -2.21 -1.66 -1.33 -6.18 -3.31 9.61 
9.11 8.01 9.47 9.84 9.66 9.67 8.88 9.10 9.12 9.03 9.49 9.20 9.46 9.52 9.18 9.25 9.03 8.95 9.78 9.03 9.20 -2.21 -1.99 -1.44 -2.65 -1.66 -2.32 -1.66 -1.33 -8.84 -4.64 11.82 
11.83 10.65 12.18 12.67 12.32 12.35 11.70 12.02 12.01 11.87 12.51 11.94 12.33 12.36 11.86 11.95 11.83 11.89 12.41 11.82 12.07 -2.32 -2.10 -1.55 -2.54 -1.55 -2.32 -1.55 -1.44 -10.16 -4.42 14.03 
14.49 13.22 14.79 15.28 14.88 14.98 14.56 14.89 14.83 14.69 15.12 14.51 14.87 14.91 14.38 14.63 14.58 14.72 14.94 14.56 14.62 -2.21 -2.10 -1.55 -2.43 -1.55 -2.21 -1.66 -1.44 -9.28 -3.76 16.79 
16.99 15.68 17.24 17.63 17.29 17.48 17.23 17.48 17.39 17.25 17.30 16.95 17.18 17.17 16.81 17.25 17.12 17.23 17.31 17.09 16.87 -2.10 -2.10 -1.66 -2.43 -1.33 -1.99 -1.66 -1.44 -9.28 -3.98 20.76 
19.32 18.05 19.56 19.83 19.57 19.82 19.55 19.69 19.65 19.48 19.22 19.32 19.39 19.28 19.19 19.78 19.39 19.39 19.51 19.36 18.96 -2.32 -2.10 -1.66 -2.32 -1.44 -2.32 -1.66 -1.44 -9.28 -3.76 21.76 
21.58 20.38 21.83 22.05 21.82 22.08 21.57 21.64 21.70 21.47 21.15 21.63 21.63 21.42 21.55 22.21 21.46 21.31 21.66 21.44 21.06 -2.32 -2.10 -1.66 -2.32 -1.33 -2.10 -1.44 -1.33 -5.74 -2.21 25.07 
23.87 22.75 24.14 24.40 24.09 24.30 23.49 23.58 23.73 23.46 23.28 23.85 23.93 23.72 23.81 24.50 23.51 23.24 23.87 23.47 23.30 -2.10 -1.99 -1.55 -2.43 -1.33 -1.99 -1.55 -1.33 -5.74 -3.31 29.38 
26.26 25.15 26.52 26.86 26.40 26.58 25.53 25.70 25.85 25.62 25.63 25.98 26.28 26.12 25.95 26.64 25.67 25.36 26.24 25.57 25.71 -2.10 -1.99 -1.44 -2.54 -1.66 -2.21 -1.66 -1.44 -6.18 -3.53 31.48 
28.82 27.61 29.01 29.46 28.83 29.04 27.84 28.11 28.18 28.04 28.14 28.16 28.67 28.57 28.09 28.76 28.02 27.78 28.87 27.84 28.25 -2.10 -2.10 -1.44 -2.54 -1.66 -2.21 -1.66 -1.21 -7.07 -4.42 32.03 
31.55 30.20 31.63 32.17 31.43 31.74 30.43 30.75 30.72 30.63 30.68 30.54 31.10 30.97 30.42 31.07 30.56 30.47 31.70 30.30 30.82 -2.10 -1.99 -1.44 -2.43 -1.66 -2.10 -1.55 -1.21 -7.07 -3.76 34.35 
34.28 32.90 34.27 34.86 34.07 34.49 33.06 33.38 33.34 33.17 33.13 33.05 33.43 33.22 32.89 33.53 33.09 33.18 34.48 32.83 33.21 -2.21 -2.10 -1.66 -2.65 -1.66 -2.21 -1.55 -1.44 -7.07 -3.76 36.67 
36.79 35.51 36.75 37.27 36.54 36.99 35.40 35.68 35.77 35.42 35.35 35.40 35.54 35.23 35.23 35.93 35.40 35.56 36.90 35.19 35.25 -2.21 -2.10 -1.66 -2.65 -1.66 -2.21 -1.55 -1.44 -8.39 -3.76 37.44 
38.91 37.82 38.94 39.30 38.69 39.04 37.27 37.54 37.84 37.33 37.31 37.41 37.43 37.04 37.24 38.05 37.37 37.48 38.83 37.23 36.99 -2.21 -2.21 -1.66 -2.43 -1.55 -2.21 -1.66 -1.44 -8.84 -3.76 40.31 
40.62 39.74 40.81 40.96 40.53 40.69 38.79 39.10 39.55 39.02 39.13 39.15 39.19 38.79 38.94 39.90 39.10 39.06 40.41 38.95 38.64 -2.32 -2.21 -1.66 -2.43 -1.44 -2.10 -1.55 -1.44 -8.84 -3.98 42.85 
42.05 41.33 42.43 42.42 42.17 42.12 40.21 40.59 41.05 40.63 40.88 40.82 40.93 40.56 40.53 41.62 40.72 40.53 41.85 40.52 40.39 -2.21 -2.10 -1.55 -2.54 -1.55 -2.21 -1.66 -1.44 -9.72 -4.42 44.40 
43.39 42.74 43.90 43.85 43.76 43.56 41.69 42.12 42.44 42.21 42.60 42.55 42.65 42.31 42.15 43.32 42.32 42.02 43.31 42.06 42.24 -2.21 -2.10 -1.44 -2.21 -1.21 -2.10 -1.66 -1.44 -7.51 -3.53 46.72 
44.81 44.15 45.29 45.34 45.35 45.08 43.23 43.66 43.79 43.73 44.22 44.27 44.26 43.92 43.80 44.98 43.89 43.51 44.82 43.60 44.02 -2.21 -1.99 -1.66 -2.21 -1.33 -2.10 -1.66 -1.33 -7.07 -3.98 48.93 
46.32 45.62 46.67 46.85 46.90 46.60 44.76 45.17 45.15 45.15 45.67 45.85 45.74 45.34 45.37 46.48 45.41 44.96 46.31 45.11 45.57 -2.10 -1.88 -1.55 -2.54 -1.55 -2.10 -1.55 -1.21 -6.18 -3.76 50.03 
47.83 47.13 48.08 48.33 48.37 48.04 46.27 46.69 46.60 46.58 47.03 47.26 47.17 46.70 46.81 47.84 46.90 46.39 47.70 46.62 46.93 -2.10 -1.99 -1.44 -2.54 -1.44 -2.21 -1.66 -1.44 -6.63 -3.76 49.48 
49.22 48.63 49.46 49.72 49.72 49.36 47.79 48.26 48.19 48.09 48.38 48.58 48.60 48.06 48.09 49.11 48.43 47.89 48.95 48.17 48.25 -2.10 -1.99 -1.44 -2.43 -1.55 -2.21 -1.55 -1.44 -7.07 -3.76 51.25 
50.40 49.99 50.68 50.91 50.88 50.49 49.25 49.73 49.78 49.62 49.69 49.73 49.97 49.39 49.17 50.27 49.91 49.35 50.02 49.64 49.51 -2.21 -1.99 -1.55 -2.65 -1.77 -2.32 -1.66 -1.44 -8.84 -4.42 52.57 
51.37 51.11 51.64 51.87 51.83 51.42 50.48 50.89 51.10 50.96 50.83 50.60 51.10 50.55 50.01 51.20 51.17 50.58 50.91 50.82 50.64 -2.21 -1.99 -1.44 -2.65 -1.66 -2.43 -1.55 -1.44 -8.84 -4.20 52.02 
52.21 51.98 52.41 52.67 52.62 52.20 51.36 51.62 51.97 51.94 51.72 51.20 51.95 51.47 50.67 51.90 52.09 51.43 51.71 51.58 51.56 -2.32 -1.99 -1.66 -2.43 -1.44 -2.21 -1.55 -1.44 -9.72 -4.42 52.13 
52.94 52.67 53.07 53.33 53.25 52.86 51.82 51.99 52.36 52.45 52.33 51.62 52.54 52.13 51.18 52.39 52.59 51.88 52.46 51.94 52.23 -2.32 -1.99 -1.55 -2.43 -1.55 -2.21 -1.66 -1.44 -9.28 -3.98 53.46 
53.41 53.17 53.54 53.72 53.64 53.32 51.91 52.10 52.38 52.52 52.67 51.90 52.87 52.51 51.50 52.67 52.67 52.02 53.01 51.96 52.62 -2.21 -2.21 -1.55 -2.54 -1.55 -2.32 -1.66 -1.55 -8.84 -3.53 52.24 
53.46 53.37 53.63 53.69 53.65 53.39 51.70 52.05 52.19 52.27 52.75 52.04 52.97 52.65 51.57 52.71 52.41 51.95 53.16 51.76 52.69 -2.21 -2.10 -1.55 -2.32 -1.33 -2.10 -1.66 -1.55 -7.95 -3.76 52.68 
53.04 53.16 53.23 53.22 53.26 52.97 51.28 51.83 51.87 51.82 52.62 51.97 52.84 52.57 51.38 52.49 51.96 51.68 52.79 51.41 52.48 -2.21 -1.99 -1.33 -2.32 -1.44 -2.10 -1.55 -1.44 -4.86 -2.87 53.57 
52.27 52.57 52.47 52.45 52.57 52.14 50.69 51.40 51.40 51.24 52.29 51.63 52.48 52.23 50.95 52.02 51.40 51.19 51.97 50.93 52.05 -2.10 -1.99 -1.44 -2.54 -1.55 -2.21 -1.55 -1.44 -5.30 -3.09 52.02 
51.35 51.75 51.62 51.59 51.75 51.17 49.96 50.74 50.74 50.54 51.78 51.02 51.91 51.63 50.37 51.39 50.76 50.49 50.95 50.33 51.48 -2.10 -2.10 -1.44 -2.54 -1.55 -2.32 -1.66 -1.44 -5.74 -3.09 49.15 
50.40 50.87 50.84 50.70 50.89 50.24 49.13 49.91 49.91 49.76 51.08 50.23 51.14 50.78 49.71 50.68 50.02 49.68 49.97 49.65 50.75 -2.10 -1.99 -1.33 -2.43 -1.55 -2.32 -1.55 -1.44 -6.18 -3.76 49.59 
49.41 49.96 50.03 49.69 49.94 49.34 48.24 48.99 48.98 48.91 50.16 49.32 50.13 49.73 48.95 49.92 49.18 48.87 49.02 48.93 49.77 -2.21 -1.99 -1.55 -2.65 -1.66 -2.32 -1.55 -1.44 -9.28 -5.08 49.37 
48.38 48.92 49.04 48.50 48.83 48.33 47.37 48.11 48.07 48.06 49.05 48.40 48.95 48.61 48.10 49.06 48.29 48.15 48.03 48.21 48.62 -2.32 -2.10 -1.66 -2.65 -1.55 -2.32 -1.66 -1.55 -9.28 -3.98 48.82 
47.39 47.76 47.92 47.30 47.68 47.27 46.64 47.39 47.30 47.29 47.93 47.59 47.84 47.61 47.28 48.18 47.51 47.55 47.03 47.55 47.56 -2.32 -2.10 -1.55 -2.32 -1.55 -2.32 -1.55 -1.44 -8.84 -3.53 48.15 
46.54 46.68 46.86 46.32 46.67 46.32 46.06 46.86 46.69 46.60 46.98 46.94 47.01 46.80 46.57 47.35 46.89 47.00 46.10 46.95 46.78 -2.21 -2.10 -1.55 -2.54 -1.55 -2.32 -1.66 -1.55 -8.39 -3.76 47.71 
45.81 45.81 45.94 45.58 45.81 45.51 45.50 46.32 46.10 45.90 46.19 46.28 46.36 46.07 45.91 46.56 46.33 46.33 45.21 46.26 46.21 -2.10 -2.10 -1.66 -2.54 -1.55 -2.32 -1.66 -1.55 -9.28 -3.98 45.83 
45.00 45.10 45.06 44.84 44.92 44.66 44.69 45.47 45.25 45.01 45.36 45.38 45.60 45.14 45.09 45.65 45.54 45.31 44.22 45.32 45.50 -2.10 -2.10 -1.55 -2.43 -1.33 -2.21 -1.55 -1.55 -6.63 -3.31 44.95 
43.89 44.24 43.95 43.76 43.76 43.51 43.40 44.10 43.90 43.76 44.26 44.07 44.41 43.83 43.90 44.45 44.28 43.84 42.95 43.99 44.38 -2.10 -2.10 -1.44 -2.43 -1.33 -2.21 -1.66 -1.44 -6.18 -3.31 45.39 
42.43 42.96 42.49 42.23 42.27 41.96 41.63 42.23 42.06 42.15 42.75 42.41 42.73 42.15 42.32 42.91 42.50 41.98 41.38 42.29 42.83 -2.10 -1.99 -1.44 -2.65 -1.55 -2.32 -1.55 -1.44 -6.63 -3.76 43.52 
40.76 41.27 40.81 40.45 40.62 40.23 39.61 40.16 40.04 40.34 40.91 40.63 40.76 40.30 40.52 41.16 40.49 40.00 39.72 40.42 41.02 -2.10 -1.99 -1.44 -2.65 -1.55 -2.43 -1.66 -1.44 -6.18 -3.53 39.32 
39.03 39.47 39.07 38.69 38.97 38.51 37.64 38.22 38.14 38.52 38.93 38.90 38.74 38.46 38.70 39.36 38.56 38.16 38.14 38.60 39.15 -2.10 -1.99 -1.44 -2.54 -1.55 -2.32 -1.66 -1.44 -6.63 -3.98 37.33 
37.16 37.71 37.21 36.92 37.26 36.72 35.79 36.43 36.38 36.67 36.88 37.10 36.72 36.59 36.75 37.44 36.77 36.43 36.49 36.80 37.17 -2.21 -2.10 -1.66 -2.87 -1.66 -2.43 -1.55 -1.44 -8.39 -4.20 35.23 
34.98 35.84 35.03 34.91 35.23 34.62 33.92 34.62 34.56 34.67 34.77 34.98 34.62 34.58 34.48 35.22 34.93 34.61 34.50 34.88 35.00 -2.21 -1.99 -1.66 -2.76 -1.66 -2.43 -1.55 -1.44 -8.39 -3.31 32.03 
32.47 33.63 32.49 32.53 32.79 32.14 31.91 32.66 32.51 32.47 32.59 32.49 32.45 32.41 31.89 32.67 32.89 32.57 32.06 32.73 32.67 -2.32 -2.21 -1.77 -2.54 -1.55 -2.32 -1.66 -1.44 -7.95 -3.09 30.59 
29.77 31.04 29.75 29.87 30.02 29.44 29.76 30.54 30.27 30.16 30.36 29.78 30.25 30.16 29.23 29.96 30.63 30.33 29.34 30.45 30.28 -2.32 -2.21 -1.66 -2.65 -1.55 -2.43 -1.66 -1.44 -8.84 -3.76 28.94 
27.06 28.26 27.06 27.14 27.16 26.75 27.51 28.31 27.98 27.84 28.01 27.08 27.96 27.85 26.71 27.29 28.25 28.01 26.61 28.18 27.85 -2.32 -2.32 -1.66 -2.54 -1.55 -2.32 -1.66 -1.55 -8.84 -3.76 25.95 
24.46 25.54 24.51 24.49 24.38 24.18 25.15 25.94 25.71 25.51 25.48 24.50 25.45 25.36 24.36 24.76 25.79 25.65 24.04 25.94 25.31 -2.21 -2.10 -1.66 -2.54 -1.55 -2.21 -1.66 -1.44 -7.07 -3.31 23.08 
21.88 22.98 21.99 21.89 21.69 21.63 22.61 23.33 23.35 23.02 22.67 21.95 22.63 22.60 21.98 22.23 23.16 23.15 21.53 23.56 22.55 -2.21 -2.10 -1.55 -2.54 -1.55 -2.21 -1.55 -1.33 -5.30 -2.87 22.53 
19.19 20.47 19.31 19.18 18.99 18.91 19.75 20.38 20.66 20.20 19.59 19.29 19.54 19.55 19.32 19.56 20.24 20.31 18.88 20.82 19.53 -2.21 -2.10 -1.44 -2.65 -1.55 -2.43 -1.66 -1.44 -6.18 -3.76 19.44 
16.33 17.82 16.44 16.32 16.24 15.99 16.62 17.15 17.56 17.01 16.37 16.49 16.36 16.38 16.39 16.73 17.02 17.10 16.03 17.67 16.38 -2.21 -2.10 -1.44 -2.65 -1.66 -2.32 -1.55 -1.33 -6.63 -4.20 14.69 
13.37 15.01 13.47 13.37 13.48 13.01 13.40 13.87 14.16 13.66 13.23 13.64 13.32 13.31 13.38 13.84 13.69 13.70 13.10 14.35 13.31 -2.21 -2.10 -1.55 -2.54 -1.66 -2.32 -1.55 -1.33 -7.07 -3.98 13.14 
10.43 12.11 10.53 10.41 10.73 10.08 10.25 10.67 10.70 10.39 10.31 10.80 10.45 10.43 10.45 10.93 10.45 10.35 10.20 11.09 10.42 -2.21 -2.21 -1.55 -2.76 -1.66 -2.43 -1.55 -1.44 -8.39 -4.20 11.04 
7.61 9.19 7.66 7.50 7.98 7.27 7.28 7.62 7.43 7.38 7.62 7.99 7.66 7.66 7.64 7.99 7.43 7.22 7.40 8.04 7.71 -2.32 -2.10 -1.66 -2.76 -1.66 -2.32 -1.55 -1.44 -7.95 -3.31 7.29 
5.01 6.38 4.93 4.78 5.28 4.60 4.52 4.74 4.56 4.63 5.05 5.26 4.94 4.92 4.96 5.05 4.69 4.42 4.78 5.28 5.11 -2.32 -2.21 -1.66 -2.65 -1.66 -2.32 -1.66 -1.33 -8.84 -4.20 5.30 
2.59 3.76 2.33 2.29 2.66 2.06 1.94 2.01 2.05 2.09 2.48 2.67 2.25 2.17 2.42 2.21 2.18 1.91 2.32 2.74 2.55 -2.21 -2.21 -1.66 -2.54 -1.55 -2.32 -1.55 -1.55 -8.84 -3.98 4.42 
0.24 1.30 -0.18 -0.03 0.11 -0.40 -0.52 -0.58 -0.26 -0.38 -0.18 0.20 -0.41 -0.58 -0.01 -0.45 -0.24 -0.44 -0.08 0.33 -0.05 -2.21 -2.21 -1.55 -2.65 -1.66 -2.32 -1.66 -1.44 -7.95 -4.20 1.44 
-2.17 -1.11 -2.66 -2.33 -2.39 -2.84 -2.90 -3.02 -2.56 -2.85 -2.91 -2.22 -3.03 -3.27 -2.40 -2.91 -2.68 -2.79 -2.53 -2.05 -2.72 -2.32 -2.10 -1.55 -2.21 -1.44 -2.10 -1.66 -1.44 -6.63 -3.53 -0.66 
-4.65 -3.58 -5.11 -4.75 -4.84 -5.28 -5.28 -5.40 -4.97 -5.36 -5.60 -4.68 -5.60 -5.88 -4.82 -5.28 -5.17 -5.21 -5.05 -4.51 -5.42 -2.21 -1.99 -1.44 -2.54 -1.44 -2.21 -1.55 -1.44 -7.07 -4.64 -2.21 
-7.17 -6.13 -7.55 -7.32 -7.28 -7.77 -7.76 -7.82 -7.53 -7.97 -8.22 -7.26 -8.13 -8.42 -7.32 -7.73 -7.72 -7.77 -7.61 -7.10 -8.09 -2.21 -2.10 -1.44 -2.76 -1.55 -2.43 -1.66 -1.44 -6.63 -3.98 -6.18 
-9.68 -8.70 -9.97 -9.98 -9.77 -10.29 -10.39 -10.34 -10.17 -10.64 -10.73 -9.92 -10.63 -10.90 -9.86 -10.32 -10.29 -10.42 -10.13 -9.82 -10.64 -2.21 -2.10 -1.44 -2.65 -1.55 -2.43 -1.66 -1.21 -6.63 -3.76 -11.38 
-12.22 -11.23 -12.41 -12.65 -12.36 -12.85 -13.08 -12.91 -12.77 -13.31 -13.16 -12.56 -13.13 -13.30 -12.35 -12.98 -12.80 -13.07 -12.61 -12.53 -13.07 -1.99 -2.21 -1.55 -2.54 -1.55 -2.43 -1.55 -1.44 -6.63 -3.53 -13.03 
-14.91 -13.80 -15.00 -15.36 -15.14 -15.51 -15.73 -15.48 -15.29 -15.92 -15.67 -15.18 -15.74 -15.73 -14.86 -15.68 -15.27 -15.70 -15.21 -15.13 -15.53 -2.32 -2.10 -1.55 -2.87 -1.88 -2.54 -1.66 -1.33 -7.51 -3.98 -14.91 
-17.81 -16.54 -17.80 -18.20 -18.07 -18.27 -18.28 -18.05 -17.79 -18.49 -18.40 -17.82 -18.53 -18.33 -17.46 -18.39 -17.76 -18.29 -17.99 -17.64 -18.20 -2.32 -2.32 -1.55 -2.76 -1.77 -2.54 -1.66 -1.44 -7.95 -3.31 -19.11 
-20.84 -19.45 -20.71 -21.11 -20.96 -21.01 -20.72 -20.59 -20.32 -21.01 -21.28 -20.47 -21.36 -21.12 -20.13 -21.01 -20.30 -20.82 -20.84 -20.11 -21.04 -2.32 -2.21 -1.66 -2.65 -1.66 -2.32 -1.66 -1.55 -8.84 -3.98 -21.43 
-23.84 -22.34 -23.55 -24.02 -23.68 -23.63 -23.13 -23.11 -22.90 -23.50 -24.07 -23.09 -24.06 -23.92 -22.78 -23.48 -22.91 -23.31 -23.63 -22.62 -23.83 -2.32 -2.21 -1.88 -2.65 -1.66 -2.32 -1.66 -1.44 -8.39 -3.76 -22.64 
-26.70 -25.06 -26.24 -26.84 -26.24 -26.17 -25.61 -25.65 -25.51 -25.99 -26.58 -25.66 -26.57 -26.57 -25.41 -25.83 -25.55 -25.79 -26.30 -25.18 -26.40 -2.32 -2.10 -1.66 -2.65 -1.66 -2.32 -1.66 -1.44 -7.95 -3.76 -25.29 
-29.35 -27.61 -28.80 -29.55 -28.74 -28.68 -28.14 -28.19 -28.09 -28.46 -28.81 -28.19 -28.97 -28.99 -27.99 -28.19 -28.14 -28.23 -28.84 -27.76 -28.76 -2.21 -2.21 -1.55 -2.43 -1.44 -2.21 -1.55 -1.44 -7.07 -3.31 -27.61 
-31.77 -30.04 -31.28 -32.09 -31.21 -31.15 -30.60 -30.66 -30.57 -30.85 -30.93 -30.68 -31.36 -31.28 -30.50 -30.67 -30.62 -30.60 -31.28 -30.25 -31.05 -2.21 -2.10 -1.55 -2.54 -1.55 -2.32 -1.66 -1.44 -5.74 -3.98 -28.05 
-33.96 -32.42 -33.67 -34.43 -33.60 -33.49 -32.88 -33.00 -32.88 -33.10 -33.07 -33.04 -33.76 -33.53 -32.88 -33.22 -32.96 -32.84 -33.56 -32.58 -33.37 -2.21 -2.10 -1.44 -2.65 -1.55 -2.43 -1.66 -1.44 -5.74 -3.31 -30.59 
-35.96 -34.68 -35.89 -36.48 -35.79 -35.58 -34.89 -35.10 -34.94 -35.13 -35.17 -35.11 -35.95 -35.67 -35.00 -35.60 -35.07 -34.87 -35.61 -34.67 -35.54 -2.21 -2.10 -1.55 -2.76 -1.66 -2.32 -1.66 -1.44 -5.74 -3.53 -34.68 
-37.80 -36.68 -37.84 -38.23 -37.71 -37.39 -36.62 -36.90 -36.76 -36.94 -37.11 -36.82 -37.74 -37.58 -36.77 -37.60 -36.93 -36.68 -37.40 -36.51 -37.39 -2.21 -1.99 -1.55 -2.65 -1.66 -2.32 -1.66 -1.55 -6.18 -4.20 -35.45 
-39.54 -38.43 -39.59 -39.82 -39.40 -39.02 -38.27 -38.57 -38.50 -38.65 -38.90 -38.32 -39.23 -39.28 -38.33 -39.27 -38.65 -38.37 -39.04 -38.25 -38.94 -2.21 -2.10 -1.55 -2.76 -1.77 -2.43 -1.66 -1.44 -8.39 -4.64 -37.22 
-41.21 -40.10 -41.24 -41.41 -40.98 -40.63 -40.05 -40.31 -40.34 -40.41 -40.70 -39.88 -40.72 -40.94 -39.94 -40.85 -40.38 -40.10 -40.69 -40.03 -40.47 -2.32 -2.10 -1.55 -2.76 -1.66 -2.43 -1.66 -1.55 -7.95 -3.53 -39.43 
-42.74 -41.78 -42.77 -43.03 -42.48 -42.22 -41.96 -42.18 -42.30 -42.23 -42.58 -41.63 -42.44 -42.74 -41.72 -42.54 -42.19 -41.89 -42.34 -41.90 -42.17 -2.43 -2.21 -1.66 -2.54 -1.55 -2.32 -1.66 -1.55 -7.95 -3.53 -40.97 
-44.09 -43.40 -44.12 -44.58 -43.89 -43.71 -43.86 -44.07 -44.24 -44.04 -44.48 -43.52 -44.37 -44.66 -43.62 -44.39 -43.99 -43.68 -43.86 -43.72 -44.03 -2.43 -2.32 -1.66 -2.54 -1.66 -2.32 -1.66 -1.44 -7.95 -3.09 -41.97 
-45.31 -44.82 -45.34 -46.02 -45.24 -45.08 -45.56 -45.82 -45.99 -45.74 -46.25 -45.36 -46.30 -46.54 -45.44 -46.29 -45.66 -45.35 -45.16 -45.34 -45.89 -2.32 -2.21 -1.66 -2.65 -1.66 -2.32 -1.66 -1.44 -7.51 -3.09 -44.29 
-46.51 -46.03 -46.57 -47.36 -46.62 -46.42 -46.98 -47.35 -47.45 -47.28 -47.79 -46.95 -47.99 -48.15 -46.98 -48.01 -47.10 -46.88 -46.33 -46.73 -47.56 -2.32 -2.10 -1.66 -2.43 -1.44 -2.21 -1.55 -1.55 -6.18 -3.53 -44.62 
-47.79 -47.16 -47.95 -48.69 -48.03 -47.80 -48.19 -48.67 -48.67 -48.63 -49.11 -48.23 -49.37 -49.43 -48.17 -49.39 -48.30 -48.25 -47.54 -47.92 -48.98 -2.32 -1.99 -1.55 -2.43 -1.44 -2.21 -1.66 -1.55 -5.30 -3.53 -44.07 
-49.10 -48.37 -49.42 -50.00 -49.40 -49.15 -49.29 -49.85 -49.73 -49.79 -50.30 -49.24 -50.50 -50.49 -49.07 -50.40 -49.33 -49.47 -48.82 -49.04 -50.17 -2.21 -1.99 -1.44 -2.54 -1.55 -2.32 -1.66 -1.44 -5.30 -3.53 -45.94 
-50.25 -49.61 -50.71 -51.10 -50.51 -50.23 -50.33 -50.87 -50.67 -50.72 -51.35 -50.06 -51.43 -51.38 -49.74 -51.07 -50.27 -50.51 -50.00 -50.07 -51.11 -2.21 -1.99 -1.44 -2.54 -1.55 -2.32 -1.66 -1.55 -7.95 -5.30 -48.15 
-51.07 -50.68 -51.56 -51.79 -51.23 -50.86 -51.19 -51.69 -51.47 -51.40 -52.16 -50.73 -52.10 -52.06 -50.26 -51.52 -51.13 -51.31 -50.91 -50.96 -51.74 -2.32 -1.99 -1.44 -2.54 -1.66 -2.32 -1.66 -1.44 -7.51 -4.20 -47.82 
-51.59 -51.43 -52.00 -52.12 -51.64 -51.15 -51.74 -52.25 -52.05 -51.87 -52.66 -51.36 -52.52 -52.49 -50.80 -51.97 -51.83 -51.83 -51.50 -51.63 -52.08 -2.32 -2.10 -1.55 -2.76 -1.66 -2.43 -1.66 -1.44 -6.63 -3.09 -47.71 
-51.91 -51.89 -52.21 -52.25 -51.87 -51.28 -51.90 -52.52 -52.33 -52.13 -52.81 -51.96 -52.70 -52.66 -51.41 -52.52 -52.23 -52.06 -51.86 -52.02 -52.19 -2.32 -2.21 -1.55 -2.65 -1.66 -2.43 -1.66 -1.55 -7.07 -3.53 -49.04 
-52.02 -52.14 -52.28 -52.25 -51.95 -51.33 -51.68 -52.48 -52.28 -52.14 -52.65 -52.40 -52.63 -52.59 -51.93 -52.98 -52.20 -51.97 -51.96 -52.06 -52.11 -2.43 -2.21 -1.55 -2.43 -1.55 -2.21 -1.77 -1.55 -8.39 -3.98 -49.26 
-51.92 -52.17 -52.21 -52.13 -51.89 -51.24 -51.26 -52.15 -51.98 -51.93 -52.26 -52.55 -52.31 -52.28 -52.17 -53.14 -51.77 -51.63 -51.81 -51.78 -51.86 -2.43 -2.21 -1.77 -2.76 -1.66 -2.32 -1.55 -1.55 -8.39 -3.98 -47.93 
-51.66 -51.99 -51.99 -51.93 -51.71 -51.03 -50.86 -51.64 -51.57 -51.62 -51.77 -52.43 -51.83 -51.82 -52.08 -53.01 -51.15 -51.19 -51.46 -51.32 -51.49 -2.43 -2.21 -1.77 -2.65 -1.66 -2.32 -1.66 -1.44 -8.39 -3.98 -48.26 
-51.33 -51.65 -51.63 -51.66 -51.46 -50.74 -50.57 -51.07 -51.14 -51.27 -51.28 -52.16 -51.29 -51.26 -51.79 -52.75 -50.60 -50.80 -51.04 -50.83 -51.05 -2.21 -2.10 -1.55 -2.43 -1.55 -2.21 -1.55 -1.33 -7.07 -3.76 -48.37 
-50.98 -51.21 -51.17 -51.31 -51.16 -50.39 -50.32 -50.49 -50.71 -50.88 -50.78 -51.85 -50.73 -50.70 -51.42 -52.50 -50.21 -50.50 -50.62 -50.41 -50.57 -2.43 -2.10 -1.55 -2.43 -1.33 -2.10 -1.66 -1.55 -7.51 -3.98 -46.72 
-50.62 -50.75 -50.67 -50.87 -50.79 -49.97 -49.95 -49.97 -50.22 -50.39 -50.21 -51.51 -50.13 -50.15 -51.03 -52.24 -49.89 -50.19 -50.18 -50.04 -50.06 -2.21 -1.99 -1.55 -2.54 -1.66 -2.32 -1.77 -1.44 -7.07 -4.42 -46.72 
-50.19 -50.23 -50.11 -50.29 -50.28 -49.43 -49.34 -49.42 -49.58 -49.71 -49.46 -51.01 -49.37 -49.51 -50.52 -51.75 -49.43 -49.69 -49.65 -49.56 -49.41 -2.21 -1.99 -1.55 -2.54 -1.55 -2.32 -1.66 -1.44 -6.63 -3.76 -47.38 
-49.58 -49.59 -49.46 -49.52 -49.57 -48.73 -48.44 -48.75 -48.76 -48.79 -48.42 -50.18 -48.33 -48.59 -49.74 -50.83 -48.67 -48.90 -48.95 -48.81 -48.49 -2.21 -2.10 -1.66 -2.54 -1.66 -2.32 -1.66 -1.44 -6.63 -3.98 -46.50 
-48.74 -48.79 -48.69 -48.63 -48.68 -47.95 -47.43 -47.95 -47.85 -47.77 -47.15 -49.04 -47.11 -47.38 -48.68 -49.53 -47.70 -47.91 -48.12 -47.81 -47.30 -2.32 -1.99 -1.55 -2.65 -1.66 -2.43 -1.66 -1.55 -7.51 -4.20 -46.17 
-47.72 -47.87 -47.80 -47.70 -47.69 -47.15 -46.51 -47.12 -46.96 -46.84 -45.80 -47.72 -45.87 -46.02 -47.40 -48.05 -46.71 -46.93 -47.24 -46.73 -45.99 -2.43 -2.10 -1.66 -2.65 -1.66 -2.32 -1.55 -1.55 -8.39 -3.53 -45.94 
-46.61 -46.90 -46.76 -46.76 -46.64 -46.32 -45.72 -46.27 -46.10 -46.06 -44.47 -46.26 -44.70 -44.68 -45.97 -46.56 -45.78 -46.03 -46.31 -45.72 -44.67 -2.43 -2.21 -1.66 -2.43 -1.55 -2.21 -1.55 -1.44 -8.84 -4.42 -43.18 
-45.47 -45.88 -45.55 -45.74 -45.52 -45.29 -44.88 -45.28 -45.12 -45.23 -43.20 -44.64 -43.53 -43.41 -44.40 -45.10 -44.82 -45.08 -45.24 -44.75 -43.36 -2.43 -2.21 -1.77 -2.54 -1.55 -2.32 -1.66 -1.44 -9.28 -3.98 -40.53 
-44.23 -44.73 -44.13 -44.46 -44.22 -43.91 -43.72 -44.01 -43.88 -44.07 -41.92 -42.86 -42.23 -42.14 -42.67 -43.57 -43.65 -43.86 -43.91 -43.65 -42.03 -2.32 -2.21 -1.88 -2.65 -1.44 -2.32 -1.55 -1.44 -8.39 -3.53 -39.43 
-42.73 -43.33 -42.47 -42.77 -42.57 -42.13 -42.12 -42.39 -42.29 -42.44 -40.56 -40.93 -40.74 -40.71 -40.75 -41.82 -42.13 -42.23 -42.23 -42.24 -40.60 -2.32 -2.21 -1.55 -2.32 -1.44 -2.10 -1.66 -1.33 -7.51 -3.98 -37.44 
-40.87 -41.61 -40.58 -40.69 -40.56 -40.03 -40.15 -40.52 -40.46 -40.46 -39.10 -38.95 -39.08 -39.07 -38.71 -39.81 -40.30 -40.29 -40.26 -40.51 -39.01 -2.21 -2.10 -1.44 -2.32 -1.44 -1.99 -1.55 -1.33 -7.07 -3.98 -34.24 
-38.69 -39.60 -38.48 -38.39 -38.33 -37.76 -38.01 -38.55 -38.51 -38.38 -37.49 -37.02 -37.34 -37.26 -36.65 -37.66 -38.26 -38.21 -38.10 -38.56 -37.24 -2.21 -2.10 -1.44 -2.43 -1.55 -2.21 -1.66 -1.44 -6.63 -3.98 -31.59 
-36.29 -37.36 -36.16 -36.03 -35.98 -35.39 -35.80 -36.46 -36.42 -36.26 -35.67 -35.03 -35.49 -35.32 -34.57 -35.41 -36.05 -36.07 -35.78 -36.40 -35.26 -2.21 -2.10 -1.55 -2.43 -1.55 -2.32 -1.66 -1.44 -7.95 -5.08 -30.92 
-33.75 -34.89 -33.60 -33.60 -33.52 -32.89 -33.45 -34.13 -34.06 -33.98 -33.56 -32.82 -33.41 -33.24 -32.35 -33.03 -33.61 -33.76 -33.25 -33.97 -33.06 -2.21 -2.10 -1.33 -2.43 -1.44 -2.21 -1.55 -1.44 -7.07 -4.20 -27.61 
-31.13 -32.20 -30.85 -31.04 -30.90 -30.25 -30.93 -31.52 -31.37 -31.42 -31.17 -30.36 -31.05 -30.99 -29.93 -30.51 -30.95 -31.20 -30.55 -31.30 -30.69 -2.32 -2.10 -1.44 -2.65 -1.66 -2.32 -1.66 -1.44 -8.39 -4.42 -25.18 
-28.45 -29.39 -28.03 -28.33 -28.11 -27.51 -28.21 -28.67 -28.41 -28.57 -28.57 -27.71 -28.44 -28.55 -27.31 -27.86 -28.17 -28.40 -27.76 -28.49 -28.18 -2.32 -2.10 -1.55 -2.54 -1.66 -2.32 -1.66 -1.55 -9.28 -4.64 -23.52 
-25.65 -26.58 -25.20 -25.44 -25.17 -24.70 -25.32 -25.65 -25.31 -25.53 -25.84 -24.90 -25.60 -25.88 -24.54 -25.08 -25.34 -25.42 -24.92 -25.62 -25.53 -2.43 -2.10 -1.66 -2.54 -1.55 -2.21 -1.55 -1.55 -9.72 -4.42 -20.98 
-22.74 -23.79 -22.33 -22.43 -22.17 -21.81 -22.34 -22.58 -22.24 -22.44 -23.01 -21.94 -22.63 -23.01 -21.63 -22.15 -22.51 -22.39 -22.04 -22.74 -22.71 -2.43 -2.21 -1.77 -2.54 -1.55 -2.21 -1.66 -1.44 -8.39 -3.53 -17.01 
-19.80 -20.98 -19.41 -19.41 -19.21 -18.86 -19.46 -19.59 -19.35 -19.48 -20.12 -18.87 -19.64 -20.03 -18.69 -19.13 -19.71 -19.45 -19.12 -19.88 -19.79 -2.54 -2.21 -1.77 -2.54 -1.55 -2.21 -1.66 -1.44 -8.39 -3.53 -15.02 
-16.92 -18.12 -16.50 -16.47 -16.36 -15.92 -16.73 -16.77 -16.70 -16.71 -17.23 -15.83 -16.73 -17.07 -15.82 -16.12 -16.95 -16.66 -16.23 -17.09 -16.88 -2.43 -2.10 -1.55 -2.21 -1.44 -1.99 -1.66 -1.44 -7.07 -3.53 -12.48 
-14.13 -15.21 -13.71 -13.69 -13.61 -13.08 -14.08 -14.11 -14.15 -14.07 -14.38 -12.99 -13.94 -14.22 -13.17 -13.28 -14.21 -13.97 -13.43 -14.34 -14.08 -2.21 -1.99 -1.55 -2.21 -1.44 -2.10 -1.66 -1.44 -7.07 -4.20 -9.17 
-11.42 -12.37 -11.07 -11.08 -10.92 -10.42 -11.36 -11.47 -11.50 -11.42 -11.59 -10.42 -11.26 -11.53 -10.76 -10.67 -11.44 -11.24 -10.78 -11.57 -11.45 -2.21 -1.88 -1.55 -2.43 -1.55 -2.21 -1.77 -1.44 -6.63 -4.20 -6.52 
-8.69 -9.62 -8.45 -8.52 -8.23 -7.87 -8.47 -8.68 -8.59 -8.63 -8.82 -7.99 -8.58 -8.95 -8.37 -8.12 -8.53 -8.37 -8.21 -8.71 -8.91 -2.21 -1.99 -1.44 -2.32 -1.55 -2.21 -1.66 -1.44 -7.51 -4.42 -4.20 
-5.88 -6.91 -5.67 -5.83 -5.45 -5.23 -5.41 -5.67 -5.44 -5.68 -5.99 -5.44 -5.83 -6.33 -5.73 -5.39 -5.48 -5.33 -5.53 -5.74 -6.30 -2.10 -1.99 -1.44 -2.43 -1.44 -2.21 -1.66 -1.44 -7.51 -3.98 -0.33 
-2.96 -4.11 -2.66 -2.92 -2.53 -2.36 -2.33 -2.54 -2.28 -2.66 -3.11 -2.60 -3.00 -3.58 -2.74 -2.37 -2.39 -2.27 -2.65 -2.79 -3.54 -2.32 -1.99 -1.55 -2.54 -1.55 -2.32 -1.66 -1.55 -8.39 -4.42 1.88 
0.05 -1.14 0.52 0.21 0.57 0.78 0.60 0.46 0.65 0.32 -0.23 0.44 -0.16 -0.71 0.45 0.83 0.60 0.60 0.43 0.05 -0.67 -2.43 -1.99 -1.66 -2.54 -1.55 -2.32 -1.66 -1.55 -9.28 -4.20 3.31 
3.09 1.96 3.72 3.46 3.73 4.04 3.36 3.23 3.34 3.20 2.61 3.55 2.72 2.27 3.64 4.02 3.45 3.24 3.58 2.80 2.28 -2.43 -2.21 -1.77 -2.43 -1.44 -2.32 -1.66 -1.44 -8.39 -3.76 6.41 
6.07 5.07 6.76 6.65 6.81 7.16 6.03 5.83 5.94 5.99 5.45 6.59 5.65 5.32 6.63 7.02 6.20 5.79 6.63 5.52 5.28 -2.32 -2.10 -1.66 -2.43 -1.44 -2.32 -1.66 -1.44 -9.72 -4.86 10.38 
8.88 8.03 9.53 9.63 9.66 9.97 8.70 8.42 8.60 8.70 8.31 9.46 8.63 8.38 9.38 9.79 8.88 8.41 9.44 8.27 8.29 -2.43 -2.10 -1.55 -2.43 -1.44 -2.21 -1.55 -1.44 -9.28 -3.53 11.71 
11.53 10.76 12.06 12.37 12.31 12.50 11.36 11.09 11.34 11.29 11.17 12.15 11.60 11.37 11.95 12.38 11.50 11.15 12.03 11.00 11.26 -2.32 -2.10 -1.55 -2.32 -1.33 -2.10 -1.44 -1.44 -7.51 -4.20 13.81 
14.11 13.32 14.47 14.93 14.82 14.90 13.96 13.78 14.03 13.75 13.95 14.73 14.47 14.18 14.45 14.90 14.01 13.91 14.47 13.61 14.12 -2.21 -2.10 -1.55 -2.43 -1.44 -2.10 -1.55 -1.44 -7.51 -4.42 18.11 
16.67 15.77 16.86 17.37 17.24 17.26 16.47 16.41 16.60 16.15 16.62 17.23 17.16 16.79 16.96 17.37 16.44 16.56 16.84 16.12 16.84 -2.10 -2.10 -1.55 -2.43 -1.55 -2.21 -1.55 -1.44 -6.63 -3.76 20.76 
19.25 18.18 19.36 19.79 19.65 19.71 19.00 19.03 19.15 18.66 19.24 19.75 19.72 19.34 19.49 19.81 18.97 19.16 19.28 18.73 19.46 -2.21 -1.99 -1.44 -2.43 -1.55 -2.21 -1.55 -1.44 -4.86 -2.87 21.98 
21.90 20.67 22.02 22.32 22.13 22.31 21.66 21.77 21.85 21.41 21.90 22.33 22.28 22.03 22.03 22.27 21.77 21.88 21.87 21.59 22.10 -2.21 -1.99 -1.55 -2.43 -1.55 -2.10 -1.55 -1.33 -6.18 -3.76 24.74 
24.59 23.30 24.77 24.95 24.71 24.98 24.39 24.61 24.68 24.32 24.59 24.89 24.89 24.82 24.44 24.72 24.73 24.68 24.59 24.59 24.75 -2.32 -2.10 -1.55 -2.65 -1.55 -2.32 -1.55 -1.33 -7.95 -4.64 27.06 
27.27 26.03 27.41 27.58 27.26 27.59 26.97 27.37 27.41 27.12 27.23 27.21 27.45 27.55 26.64 27.04 27.55 27.37 27.30 27.39 27.34 -2.43 -1.99 -1.55 -2.54 -1.66 -2.21 -1.66 -1.33 -9.28 -4.64 28.83 
29.83 28.72 29.81 30.12 29.68 30.03 29.28 29.85 29.84 29.59 29.74 29.23 29.85 30.02 28.64 29.21 29.99 29.75 29.86 29.72 29.78 -2.43 -2.10 -1.55 -2.43 -1.55 -2.21 -1.55 -1.44 -9.28 -4.20 31.03 
32.19 31.22 32.01 32.47 31.93 32.31 31.36 32.02 31.96 31.72 32.07 31.08 32.02 32.20 30.58 31.33 32.06 31.83 32.17 31.62 32.06 -2.32 -2.10 -1.66 -2.43 -1.55 -2.21 -1.55 -1.44 -8.39 -3.53 34.24 
34.33 33.47 34.14 34.63 34.04 34.47 33.36 34.00 33.92 33.69 34.20 33.01 34.01 34.16 32.65 33.54 33.97 33.77 34.25 33.36 34.14 -2.32 -2.10 -1.44 -2.54 -1.44 -2.21 -1.66 -1.33 -7.07 -3.09 35.78 
36.33 35.53 36.27 36.64 36.09 36.55 35.40 35.91 35.91 35.69 36.16 35.19 35.95 36.06 34.91 35.87 35.92 35.71 36.19 35.20 36.06 -2.21 -2.10 -1.33 -2.21 -1.33 -2.10 -1.55 -1.44 -6.18 -3.09 37.99 
38.27 37.49 38.38 38.57 38.12 38.51 37.42 37.80 37.96 37.76 37.99 37.52 37.91 37.95 37.23 38.19 37.93 37.70 38.03 37.19 37.86 -2.21 -1.99 -1.21 -2.32 -1.44 -2.10 -1.55 -1.33 -5.30 -2.87 41.09 
40.15 39.40 40.38 40.42 40.14 40.32 39.31 39.60 39.96 39.78 39.76 39.73 39.90 39.83 39.39 40.30 39.90 39.63 39.79 39.20 39.66 -2.32 -1.99 -1.44 -2.43 -1.44 -2.21 -1.55 -1.44 -6.18 -3.98 42.85 
41.91 41.24 42.28 42.23 42.10 42.05 41.07 41.37 41.83 41.68 41.58 41.61 41.92 41.68 41.26 42.12 41.79 41.46 41.51 41.13 41.53 -2.21 -1.99 -1.44 -2.54 -1.44 -2.21 -1.66 -1.33 -6.18 -3.76 43.18 
43.55 43.00 44.10 44.01 43.93 43.78 42.77 43.17 43.58 43.46 43.48 43.19 43.94 43.51 42.87 43.71 43.63 43.22 43.23 42.97 43.47 -2.32 -2.10 -1.33 -2.43 -1.33 -2.21 -1.66 -1.44 -5.74 -3.53 44.29 
45.05 44.64 45.77 45.67 45.55 45.44 44.42 44.94 45.18 45.06 45.30 44.55 45.75 45.21 44.26 45.11 45.35 44.88 44.88 44.67 45.25 -2.43 -2.10 -1.44 -2.65 -1.66 -2.32 -1.66 -1.44 -8.84 -3.98 44.84 
46.33 46.04 47.15 47.01 46.84 46.81 45.87 46.43 46.53 46.37 46.78 45.71 47.15 46.65 45.42 46.30 46.74 46.31 46.28 46.09 46.66 -2.43 -2.21 -1.44 -2.65 -1.66 -2.21 -1.55 -1.44 -8.39 -3.53 45.72 
47.35 47.13 48.16 47.97 47.77 47.76 46.96 47.43 47.52 47.29 47.83 46.76 48.12 47.76 46.42 47.30 47.65 47.36 47.33 47.11 47.65 -2.32 -2.21 -1.66 -2.43 -1.44 -2.10 -1.55 -1.55 -8.39 -3.53 47.60 
48.17 47.96 48.91 48.66 48.46 48.39 47.69 47.98 48.17 47.87 48.53 47.75 48.79 48.53 47.36 48.20 48.15 48.00 48.09 47.77 48.35 -2.32 -2.21 -1.55 -2.43 -1.55 -2.21 -1.66 -1.44 -7.95 -3.53 49.15 
48.94 48.72 49.58 49.31 49.09 48.96 48.20 48.34 48.67 48.31 49.08 48.71 49.34 49.06 48.29 49.08 48.54 48.41 48.73 48.27 48.96 -2.32 -2.21 -1.66 -2.43 -1.55 -2.32 -1.66 -1.44 -8.84 -4.64 49.48 
49.77 49.57 50.32 50.06 49.81 49.66 48.70 48.85 49.25 48.85 49.67 49.63 49.95 49.55 49.22 50.01 49.12 48.86 49.39 48.86 49.66 -2.21 -2.10 -1.55 -2.32 -1.33 -2.10 -1.55 -1.44 -6.63 -3.76 50.14 
50.63 50.48 51.07 50.85 50.58 50.45 49.28 49.63 49.98 49.57 50.36 50.45 50.63 50.14 50.10 50.95 49.94 49.50 50.10 49.59 50.42 -2.21 -1.99 -1.44 -2.43 -1.44 -2.21 -1.55 -1.44 -6.18 -3.98 52.46 
51.36 51.23 51.71 51.52 51.25 51.14 49.90 50.54 50.76 50.38 51.05 51.07 51.27 50.81 50.83 51.76 50.82 50.28 50.73 50.36 51.10 -2.21 -2.10 -1.44 -2.65 -1.55 -2.21 -1.66 -1.33 -5.74 -3.76 51.80 
51.85 51.67 52.13 51.99 51.71 51.59 50.50 51.35 51.44 51.10 51.64 51.48 51.79 51.48 51.34 52.35 51.59 51.06 51.20 51.05 51.60 -2.21 -1.99 -1.66 -2.54 -1.55 -2.32 -1.66 -1.33 -5.30 -3.09 50.91 
52.09 51.82 52.29 52.25 51.94 51.79 50.99 51.88 51.88 51.54 52.06 51.72 52.16 52.04 51.62 52.64 52.08 51.68 51.47 51.53 51.90 -2.21 -2.10 -1.66 -2.54 -1.55 -2.21 -1.55 -1.44 -5.74 -3.76 51.69 
52.06 51.78 52.16 52.27 51.92 51.77 51.20 51.98 51.96 51.57 52.24 51.76 52.32 52.27 51.64 52.57 52.15 51.95 51.49 51.69 51.97 -2.21 -1.99 -1.55 -2.65 -1.66 -2.43 -1.55 -1.44 -8.84 -4.86 51.58 
51.76 51.60 51.74 52.04 51.70 51.54 51.01 51.63 51.68 51.23 52.15 51.56 52.19 52.08 51.40 52.16 51.79 51.76 51.22 51.46 51.77 -2.32 -2.10 -1.66 -2.76 -1.66 -2.43 -1.55 -1.44 -9.28 -4.42 49.92 
51.27 51.35 51.18 51.63 51.34 51.15 50.49 50.94 51.13 50.70 51.87 51.11 51.80 51.58 50.94 51.54 51.16 51.20 50.75 50.96 51.38 -2.32 -2.21 -1.77 -2.54 -1.55 -2.32 -1.55 -1.44 -8.39 -3.53 50.03 
50.65 51.04 50.64 51.14 50.89 50.65 49.78 50.13 50.46 50.14 51.52 50.44 51.32 51.02 50.32 50.88 50.46 50.45 50.20 50.35 50.94 -2.32 -2.21 -1.55 -2.65 -1.55 -2.32 -1.55 -1.44 -8.84 -3.98 50.91 
49.96 50.66 50.19 50.62 50.34 50.06 49.04 49.38 49.79 49.64 51.16 49.65 50.88 50.56 49.60 50.28 49.84 49.67 49.64 49.75 50.54 -2.32 -2.10 -1.66 -2.54 -1.55 -2.32 -1.66 -1.44 -8.84 -3.98 49.48 
49.24 50.14 49.74 50.07 49.67 49.38 48.39 48.80 49.19 49.19 50.74 48.89 50.47 50.19 48.91 49.73 49.34 48.99 49.05 49.21 50.15 -2.21 -1.99 -1.77 -2.32 -1.44 -2.10 -1.66 -1.44 -6.63 -3.31 49.59 
48.49 49.42 49.17 49.38 48.89 48.57 47.88 48.39 48.65 48.72 50.13 48.19 49.94 49.73 48.23 49.10 48.89 48.43 48.38 48.71 49.62 -2.10 -2.10 -1.77 -2.43 -1.44 -2.21 -1.55 -1.44 -7.07 -4.86 51.14 
47.73 48.51 48.42 48.48 48.01 47.64 47.41 47.98 48.11 48.16 49.24 47.44 49.09 48.94 47.42 48.23 48.37 47.89 47.59 48.13 48.80 -2.21 -1.99 -1.55 -2.65 -1.55 -2.43 -1.55 -1.44 -5.74 -3.31 48.93 
46.97 47.52 47.57 47.44 47.08 46.68 46.82 47.39 47.44 47.41 48.11 46.57 47.94 47.82 46.39 47.17 47.65 47.21 46.73 47.38 47.71 -2.21 -2.10 -1.55 -2.65 -1.66 -2.32 -1.66 -1.44 -5.30 -3.53 45.50 
46.12 46.55 46.61 46.31 46.10 45.68 45.87 46.43 46.48 46.37 46.79 45.53 46.59 46.46 45.18 46.04 46.65 46.21 45.79 46.37 46.44 -2.10 -2.10 -1.55 -2.43 -1.55 -2.32 -1.66 -1.44 -7.07 -4.42 44.95 
44.94 45.50 45.42 45.03 44.89 44.46 44.41 44.96 45.04 44.92 45.27 44.29 45.05 44.93 43.83 44.86 45.24 44.75 44.61 45.00 44.98 -2.21 -2.10 -1.66 -2.76 -1.77 -2.43 -1.66 -1.44 -8.84 -5.08 43.74 
43.32 44.15 43.86 43.47 43.34 42.88 42.51 43.09 43.13 43.08 43.53 42.82 43.33 43.24 42.39 43.53 43.46 42.92 43.06 43.30 43.27 -2.32 -1.99 -1.66 -2.65 -1.66 -2.43 -1.66 -1.44 -8.84 -4.42 40.97 
41.40 42.44 42.03 41.69 41.50 41.05 40.52 41.14 41.05 41.12 41.67 41.27 41.54 41.46 40.94 41.99 41.54 41.01 41.22 41.46 41.38 -2.21 -2.21 -1.66 -2.65 -1.55 -2.32 -1.55 -1.44 -9.72 -3.98 39.43 
39.44 40.56 40.09 39.81 39.56 39.18 38.73 39.36 39.13 39.32 39.83 39.73 39.78 39.64 39.48 40.27 39.74 39.27 39.29 39.68 39.45 -2.32 -2.10 -1.66 -2.65 -1.66 -2.32 -1.55 -1.44 -8.84 -4.20 37.88 
37.51 38.63 38.09 37.87 37.57 37.35 37.12 37.73 37.44 37.67 38.01 38.13 37.93 37.70 37.88 38.35 38.07 37.68 37.33 37.98 37.53 -2.32 -2.10 -1.66 -2.65 -1.66 -2.32 -1.55 -1.33 -9.28 -4.20 35.12 
35.50 36.62 35.92 35.81 35.47 35.46 35.39 35.97 35.74 35.94 36.02 36.21 35.81 35.49 35.93 36.18 36.29 35.96 35.27 36.14 35.49 -2.21 -2.10 -1.66 -2.43 -1.44 -2.10 -1.55 -1.33 -7.51 -3.53 34.02 
33.26 34.38 33.47 33.50 33.18 33.27 33.25 33.79 33.74 33.89 33.71 33.76 33.29 32.93 33.47 33.68 34.14 33.84 32.97 33.94 33.17 -2.21 -2.10 -1.66 -2.54 -1.77 -2.21 -1.66 -1.33 -5.74 -3.53 33.02 
30.72 31.86 30.76 30.90 30.69 30.68 30.66 31.15 31.31 31.45 31.07 30.82 30.47 30.11 30.58 30.93 31.55 31.30 30.45 31.35 30.55 -2.21 -1.99 -1.33 -2.65 -1.55 -2.32 -1.66 -1.44 -4.86 -3.31 29.82 
28.03 29.17 28.01 28.16 28.11 27.84 27.86 28.26 28.60 28.76 28.36 27.78 27.74 27.36 27.59 28.17 28.74 28.56 27.85 28.56 27.86 -2.21 -2.10 -1.44 -2.76 -1.66 -2.32 -1.55 -1.44 -6.63 -3.98 25.73 
25.34 26.55 25.40 25.43 25.53 25.00 25.10 25.43 25.81 26.00 25.81 25.01 25.36 24.92 24.85 25.63 25.96 25.84 25.30 25.77 25.37 -2.21 -1.99 -1.55 -2.65 -1.66 -2.21 -1.66 -1.33 -6.18 -3.76 24.41 
22.70 24.09 22.87 22.73 22.93 22.26 22.43 22.72 23.01 23.22 23.41 22.56 23.25 22.70 22.38 23.22 23.26 23.16 22.73 23.02 23.08 -2.21 -2.10 -1.55 -2.76 -1.77 -2.43 -1.55 -1.44 -7.51 -4.64 22.20 
20.13 21.70 20.30 20.00 20.26 19.62 19.76 20.07 20.17 20.42 20.99 20.17 21.04 20.42 19.94 20.69 20.53 20.42 20.05 20.28 20.80 -2.21 -2.21 -1.55 -2.76 -1.66 -2.43 -1.66 -1.44 -9.72 -4.64 18.44 
17.64 19.25 17.65 17.28 17.58 17.05 17.06 17.41 17.32 17.63 18.42 17.57 18.51 17.87 17.33 17.89 17.72 17.61 17.31 17.52 18.34 -2.32 -2.10 -1.55 -2.54 -1.55 -2.32 -1.55 -1.44 -10.60 -4.64 16.68 
15.24 16.73 15.06 14.67 14.98 14.55 14.32 14.71 14.49 14.84 15.65 14.65 15.64 15.07 14.46 14.83 14.87 14.74 14.62 14.76 15.63 -2.32 -1.99 -1.55 -2.65 -1.66 -2.32 -1.55 -1.44 -9.28 -4.42 14.69 
12.87 14.19 12.57 12.18 12.44 12.06 11.57 11.95 11.68 12.01 12.74 11.51 12.62 12.15 11.42 11.65 12.02 11.86 12.07 11.99 12.77 -2.32 -1.99 -1.66 -2.65 -1.55 -2.43 -1.66 -1.44 -8.39 -3.76 10.49 
10.39 11.58 10.10 9.68 9.86 9.47 8.78 9.12 8.85 9.08 9.83 8.40 9.69 9.32 8.36 8.57 9.21 8.98 9.57 9.20 9.92 -2.21 -1.99 -1.55 -2.43 -1.44 -2.21 -1.66 -1.44 -6.63 -3.53 8.61 
7.65 8.80 7.43 6.97 7.10 6.69 5.93 6.21 5.93 6.09 7.03 5.48 6.92 6.68 5.42 5.67 6.41 6.07 6.91 6.35 7.15 -2.10 -2.10 -1.44 -2.43 -1.55 -2.32 -1.66 -1.44 -5.74 -3.53 8.17 
4.63 5.80 4.46 4.01 4.13 3.75 3.00 3.26 2.95 3.09 4.32 2.74 4.25 4.12 2.63 2.89 3.57 3.12 3.99 3.43 4.43 -2.21 -1.99 -1.44 -2.65 -1.66 -2.43 -1.55 -1.44 -6.63 -3.98 5.30 
1.55 2.73 1.40 1.04 1.17 0.87 0.12 0.38 0.03 0.20 1.66 0.17 1.60 1.54 0.00 0.17 0.75 0.21 1.03 0.52 1.68 -2.10 -1.99 -1.55 -2.76 -1.66 -2.43 -1.55 -1.44 -6.63 -4.42 0.44 
-1.30 -0.14 -1.47 -1.65 -1.56 -1.71 -2.58 -2.33 -2.66 -2.49 -0.99 -2.28 -1.10 -1.16 -2.45 -2.49 -1.99 -2.54 -1.67 -2.22 -1.10 -2.21 -1.99 -1.55 -2.54 -1.55 -2.32 -1.44 -1.44 -7.07 -4.20 -1.66 
-3.84 -2.71 -4.10 -4.08 -4.09 -4.08 -5.14 -4.95 -5.19 -5.08 -3.72 -4.73 -3.90 -4.04 -4.83 -5.11 -4.68 -5.19 -4.10 -4.82 -3.95 -2.32 -1.99 -1.55 -2.87 -1.77 -2.54 -1.66 -1.44 -8.39 -4.42 -4.53 
-6.26 -5.19 -6.69 -6.56 -6.63 -6.51 -7.74 -7.61 -7.73 -7.75 -6.55 -7.32 -6.84 -7.06 -7.28 -7.74 -7.42 -7.87 -6.50 -7.42 -6.86 -2.32 -2.21 -1.66 -2.76 -1.77 -2.43 -1.66 -1.44 -8.84 -4.42 -8.28 
-8.81 -7.83 -9.38 -9.28 -9.34 -9.22 -10.47 -10.37 -10.40 -10.52 -9.43 -10.02 -9.77 -10.02 -9.87 -10.37 -10.24 -10.61 -9.12 -10.12 -9.73 -2.32 -2.10 -1.66 -2.54 -1.66 -2.32 -1.66 -1.55 -9.72 -4.42 -10.16 
-11.62 -10.71 -12.19 -12.22 -12.20 -12.17 -13.25 -13.14 -13.14 -13.28 -12.20 -12.71 -12.53 -12.74 -12.52 -12.95 -13.03 -13.32 -11.96 -12.86 -12.41 -2.21 -1.99 -1.66 -2.65 -1.66 -2.32 -1.55 -1.55 -8.84 -3.31 -11.38 
-14.63 -13.71 -14.97 -15.16 -15.05 -15.14 -15.88 -15.78 -15.79 -15.88 -14.73 -15.25 -15.03 -15.20 -15.16 -15.47 -15.67 -15.85 -14.82 -15.48 -14.84 -2.21 -2.10 -1.66 -2.54 -1.55 -2.32 -1.66 -1.44 -7.51 -3.76 -14.80 
-17.60 -16.57 -17.62 -17.89 -17.70 -17.91 -18.27 -18.23 -18.27 -18.28 -17.04 -17.61 -17.33 -17.47 -17.71 -17.92 -18.11 -18.20 -17.51 -17.90 -17.07 -2.32 -2.10 -1.55 -2.43 -1.55 -2.21 -1.66 -1.44 -7.51 -4.20 -16.12 
-20.29 -19.13 -20.08 -20.35 -20.13 -20.39 -20.52 -20.59 -20.68 -20.62 -19.28 -19.92 -19.56 -19.72 -20.22 -20.36 -20.43 -20.51 -19.99 -20.20 -19.27 -2.21 -2.10 -1.66 -2.54 -1.55 -2.21 -1.66 -1.44 -6.63 -3.98 -17.89 
-22.67 -21.40 -22.38 -22.67 -22.41 -22.67 -22.83 -23.01 -23.16 -23.07 -21.62 -22.28 -21.84 -22.06 -22.73 -22.85 -22.82 -22.93 -22.35 -22.56 -21.58 -2.21 -1.99 -1.55 -2.76 -1.66 -2.43 -1.55 -1.44 -4.86 -3.53 -21.87 
-24.86 -23.55 -24.59 -24.97 -24.68 -24.88 -25.30 -25.57 -25.75 -25.65 -24.08 -24.72 -24.21 -24.45 -25.22 -25.38 -25.33 -25.45 -24.71 -25.08 -23.98 -2.21 -1.99 -1.44 -2.54 -1.66 -2.32 -1.77 -1.44 -7.07 -4.20 -25.73 
-27.11 -25.77 -26.85 -27.35 -27.05 -27.18 -27.90 -28.18 -28.37 -28.28 -26.64 -27.21 -26.70 -26.92 -27.63 -27.93 -27.89 -28.00 -27.13 -27.69 -26.41 -2.21 -1.88 -1.55 -2.65 -1.66 -2.32 -1.66 -1.33 -7.51 -4.64 -27.06 
-29.59 -28.20 -29.30 -29.92 -29.58 -29.66 -30.57 -30.78 -30.96 -30.86 -29.33 -29.79 -29.35 -29.53 -30.00 -30.56 -30.40 -30.52 -29.65 -30.31 -28.93 -2.21 -2.10 -1.55 -2.76 -1.55 -2.43 -1.66 -1.44 -8.84 -4.42 -29.49 
-32.25 -30.86 -31.92 -32.59 -32.18 -32.25 -33.20 -33.28 -33.43 -33.33 -32.11 -32.44 -32.09 -32.30 -32.37 -33.20 -32.79 -32.95 -32.19 -32.86 -31.57 -2.32 -2.21 -1.55 -2.76 -1.66 -2.43 -1.66 -1.33 -9.28 -3.98 -32.14 
-34.82 -33.51 -34.47 -35.11 -34.63 -34.71 -35.57 -35.54 -35.67 -35.58 -34.76 -34.99 -34.71 -34.97 -34.68 -35.67 -34.94 -35.19 -34.63 -35.19 -34.17 -2.32 -2.21 -1.66 -2.65 -1.44 -2.32 -1.66 -1.55 -9.72 -4.20 -34.02 
-37.05 -35.89 -36.73 -37.28 -36.74 -36.85 -37.54 -37.50 -37.55 -37.53 -37.02 -37.28 -36.95 -37.27 -36.84 -37.82 -36.83 -37.14 -36.82 -37.16 -36.48 -2.43 -2.10 -1.66 -2.65 -1.66 -2.43 -1.66 -1.44 -10.16 -4.86 -35.56 
-38.91 -37.90 -38.65 -39.11 -38.56 -38.69 -39.17 -39.17 -39.12 -39.17 -38.81 -39.27 -38.76 -39.09 -38.80 -39.68 -38.53 -38.85 -38.75 -38.79 -38.39 -2.32 -2.21 -1.66 -2.76 -1.55 -2.43 -1.44 -1.44 -7.07 -3.31 -38.21 
-40.55 -39.64 -40.40 -40.81 -40.26 -40.40 -40.63 -40.69 -40.55 -40.65 -40.28 -41.02 -40.30 -40.56 -40.56 -41.36 -40.15 -40.40 -40.49 -40.26 -40.01 -2.10 -2.10 -1.77 -2.54 -1.55 -2.21 -1.66 -1.44 -7.51 -4.20 -39.21 
-42.15 -41.30 -42.16 -42.58 -42.03 -42.15 -42.13 -42.22 -42.09 -42.18 -41.72 -42.63 -41.82 -41.98 -42.13 -42.98 -41.83 -41.97 -42.15 -41.79 -41.59 -2.10 -2.10 -1.55 -2.54 -1.55 -2.32 -1.66 -1.33 -7.51 -4.64 -39.98 
-43.80 -43.01 -43.98 -44.45 -43.89 -43.94 -43.76 -43.90 -43.87 -43.95 -43.35 -44.17 -43.51 -43.59 -43.61 -44.58 -43.62 -43.68 -43.78 -43.54 -43.31 -2.10 -2.10 -1.55 -2.65 -1.77 -2.32 -1.66 -1.21 -7.95 -4.86 -42.63 
-45.46 -44.67 -45.69 -46.24 -45.72 -45.59 -45.49 -45.69 -45.80 -45.90 -45.15 -45.64 -45.32 -45.39 -45.05 -46.11 -45.50 -45.54 -45.32 -45.47 -45.14 -2.10 -2.10 -1.55 -2.65 -1.66 -2.32 -1.66 -1.33 -8.39 -5.30 -43.85 
-46.98 -46.13 -47.16 -47.72 -47.31 -46.93 -47.17 -47.44 -47.62 -47.80 -46.88 -47.03 -47.06 -47.21 -46.51 -47.56 -47.31 -47.39 -46.68 -47.35 -46.91 -2.21 -2.10 -1.44 -2.65 -1.66 -2.32 -1.55 -1.33 -9.28 -5.08 -43.52 
-48.27 -47.37 -48.34 -48.82 -48.54 -47.94 -48.62 -48.99 -49.15 -49.36 -48.36 -48.36 -48.58 -48.81 -47.99 -48.97 -48.86 -49.06 -47.81 -48.93 -48.41 -2.32 -2.10 -1.55 -2.76 -1.77 -2.54 -1.66 -1.33 -10.60 -5.30 -45.50 
-49.23 -48.45 -49.26 -49.56 -49.37 -48.68 -49.72 -50.18 -50.24 -50.40 -49.46 -49.57 -49.75 -50.03 -49.36 -50.25 -49.97 -50.33 -48.68 -50.05 -49.54 -2.32 -2.21 -1.55 -2.76 -1.55 -2.43 -1.66 -1.44 -10.60 -5.08 -47.82 
-49.86 -49.40 -49.94 -50.06 -49.87 -49.24 -50.38 -50.92 -50.87 -50.88 -50.20 -50.50 -50.49 -50.79 -50.39 -51.24 -50.53 -51.06 -49.28 -50.67 -50.24 -2.43 -2.21 -1.44 -2.54 -1.55 -2.32 -1.66 -1.55 -9.72 -4.20 -47.38 
-50.30 -50.19 -50.46 -50.48 -50.24 -49.70 -50.65 -51.21 -51.08 -50.94 -50.70 -51.07 -50.87 -51.20 -50.95 -51.81 -50.61 -51.27 -49.69 -50.88 -50.61 -2.43 -2.10 -1.55 -2.76 -1.55 -2.32 -1.44 -1.44 -9.28 -4.86 -46.39 
-50.69 -50.77 -50.89 -50.92 -50.61 -50.08 -50.64 -51.17 -51.03 -50.84 -51.08 -51.33 -51.08 -51.44 -51.10 -52.01 -50.42 -51.12 -50.01 -50.86 -50.82 -2.43 -2.21 -1.66 -2.65 -1.55 -2.32 -1.55 -1.44 -9.28 -4.20 -48.15 
-51.04 -51.13 -51.28 -51.33 -50.95 -50.38 -50.55 -50.99 -50.90 -50.79 -51.46 -51.42 -51.30 -51.69 -51.00 -51.98 -50.24 -50.88 -50.28 -50.80 -51.05 -2.32 -2.21 -1.55 -2.54 -1.44 -2.21 -1.66 -1.33 -7.51 -3.98 -48.26 
-51.31 -51.32 -51.63 -51.62 -51.18 -50.61 -50.58 -50.92 -50.93 -50.95 -51.89 -51.52 -51.72 -52.09 -50.88 -51.95 -50.32 -50.82 -50.53 -50.88 -51.44 -2.21 -1.99 -1.44 -2.43 -1.44 -2.21 -1.66 -1.33 -6.18 -3.76 -48.15 
-51.50 -51.46 -51.95 -51.76 -51.33 -50.85 -50.84 -51.09 -51.19 -51.31 -52.42 -51.75 -52.33 -52.64 -50.89 -52.07 -50.73 -51.06 -50.78 -51.17 -52.01 -2.21 -1.99 -1.44 -2.54 -1.55 -2.32 -1.66 -1.33 -6.63 -4.20 -48.15 
-51.65 -51.64 -52.15 -51.78 -51.42 -51.06 -51.18 -51.37 -51.53 -51.69 -52.87 -52.04 -52.88 -53.14 -51.03 -52.26 -51.24 -51.43 -51.03 -51.52 -52.58 -2.21 -2.10 -1.33 -2.65 -1.66 -2.32 -1.66 -1.33 -7.95 -4.86 -49.70 
-51.73 -51.81 -52.15 -51.69 -51.44 -51.12 -51.33 -51.45 -51.67 -51.81 -52.98 -52.19 -52.99 -53.24 -51.15 -52.33 -51.52 -51.63 -51.17 -51.65 -52.78 -2.21 -2.10 -1.44 -2.65 -1.55 -2.32 -1.66 -1.33 -8.39 -4.86 -48.82 
-51.67 -51.84 -51.90 -51.52 -51.37 -50.95 -51.11 -51.17 -51.46 -51.53 -52.58 -52.01 -52.47 -52.77 -51.10 -52.11 -51.40 -51.47 -51.11 -51.42 -52.43 -2.21 -2.10 -1.55 -2.76 -1.77 -2.43 -1.66 -1.55 -8.39 -3.98 -49.26 
-51.38 -51.64 -51.42 -51.25 -51.14 -50.58 -50.59 -50.64 -50.99 -50.97 -51.74 -51.49 -51.50 -51.85 -50.80 -51.60 -50.96 -51.01 -50.83 -50.89 -51.60 -2.32 -2.21 -1.55 -2.65 -1.55 -2.32 -1.66 -1.44 -9.28 -4.42 -49.15 
-50.82 -51.18 -50.77 -50.86 -50.71 -50.07 -49.94 -50.08 -50.47 -50.38 -50.73 -50.72 -50.43 -50.80 -50.27 -50.92 -50.45 -50.45 -50.33 -50.28 -50.56 -2.32 -2.21 -1.66 -2.54 -1.55 -2.21 -1.55 -1.33 -8.84 -3.76 -47.60 
-50.07 -50.47 -49.98 -50.31 -50.04 -49.45 -49.33 -49.67 -50.03 -49.93 -49.79 -49.89 -49.59 -49.92 -49.59 -50.21 -50.01 -49.94 -49.62 -49.77 -49.61 -2.32 -2.21 -1.66 -2.65 -1.55 -2.21 -1.66 -1.44 -8.84 -4.20 -45.83 
-49.17 -49.56 -49.07 -49.52 -49.16 -48.68 -48.72 -49.33 -49.58 -49.53 -48.97 -49.08 -49.02 -49.26 -48.85 -49.51 -49.56 -49.47 -48.67 -49.31 -48.86 -2.32 -2.21 -1.66 -2.54 -1.55 -2.32 -1.66 -1.44 -9.28 -4.64 -45.28 
-48.10 -48.42 -47.98 -48.39 -48.04 -47.66 -47.95 -48.80 -48.91 -48.91 -48.17 -48.18 -48.52 -48.61 -47.97 -48.64 -48.83 -48.82 -47.48 -48.68 -48.16 -2.10 -2.10 -1.55 -2.32 -1.44 -2.10 -1.66 -1.33 -7.07 -3.09 -44.18 
-46.81 -47.09 -46.70 -46.93 -46.73 -46.37 -46.93 -47.88 -47.84 -47.89 -47.25 -46.98 -47.78 -47.73 -46.75 -47.38 -47.68 -47.80 -46.10 -47.68 -47.29 -2.10 -2.10 -1.55 -2.43 -1.44 -2.10 -1.66 -1.33 -5.74 -3.53 -42.41 
-45.36 -45.68 -45.30 -45.31 -45.30 -44.87 -45.69 -46.57 -46.40 -46.49 -46.17 -45.40 -46.68 -46.54 -45.14 -45.72 -46.19 -46.43 -44.65 -46.33 -46.15 -2.10 -2.10 -1.55 -2.65 -1.55 -2.32 -1.66 -1.33 -6.18 -3.76 -41.97 
-43.83 -44.30 -43.82 -43.71 -43.82 -43.29 -44.24 -44.99 -44.73 -44.83 -44.88 -43.53 -45.21 -45.10 -43.22 -43.83 -44.53 -44.80 -43.18 -44.79 -44.76 -2.10 -2.21 -1.55 -2.43 -1.66 -2.32 -1.55 -1.21 -6.18 -3.98 -40.97 
-42.30 -42.93 -42.29 -42.18 -42.32 -41.71 -42.57 -43.22 -42.91 -43.02 -43.34 -41.56 -43.48 -43.45 -41.21 -41.94 -42.80 -43.03 -41.63 -43.12 -43.16 -2.10 -2.10 -1.55 -2.43 -1.44 -2.21 -1.66 -1.33 -7.51 -4.20 -38.10 
-40.71 -41.49 -40.66 -40.63 -40.72 -40.10 -40.68 -41.34 -41.02 -41.10 -41.58 -39.70 -41.67 -41.66 -39.33 -40.21 -41.00 -41.18 -39.95 -41.36 -41.43 -2.21 -2.10 -1.44 -2.65 -1.66 -2.43 -1.66 -1.44 -9.72 -5.08 -36.56 
-38.90 -39.81 -38.84 -38.87 -38.90 -38.33 -38.60 -39.35 -39.05 -39.11 -39.70 -37.95 -39.80 -39.74 -37.57 -38.54 -39.09 -39.26 -38.08 -39.45 -39.58 -2.21 -2.21 -1.55 -2.54 -1.55 -2.32 -1.66 -1.21 -10.16 -4.64 -35.34 
-36.76 -37.83 -36.73 -36.76 -36.78 -36.26 -36.37 -37.22 -36.98 -37.02 -37.71 -36.14 -37.77 -37.67 -35.73 -36.70 -37.01 -37.20 -35.99 -37.36 -37.56 -2.32 -2.10 -1.66 -2.43 -1.44 -2.21 -1.55 -1.44 -9.28 -4.20 -32.03 
-34.34 -35.54 -34.33 -34.35 -34.37 -33.87 -34.08 -34.97 -34.79 -34.83 -35.61 -34.14 -35.45 -35.41 -33.63 -34.54 -34.76 -34.97 -33.73 -35.12 -35.30 -2.32 -2.21 -1.66 -2.43 -1.55 -2.32 -1.66 -1.44 -8.39 -3.76 -28.94 
-31.79 -33.05 -31.73 -31.77 -31.78 -31.26 -31.76 -32.60 -32.50 -32.55 -33.30 -31.91 -32.87 -33.00 -31.28 -32.08 -32.37 -32.57 -31.33 -32.75 -32.84 -2.32 -2.21 -1.77 -2.43 -1.44 -2.21 -1.66 -1.44 -7.95 -3.76 -26.51 
-29.19 -30.41 -29.02 -29.10 -29.08 -28.51 -29.38 -30.07 -30.08 -30.13 -30.74 -29.50 -30.12 -30.42 -28.78 -29.46 -29.86 -30.02 -28.80 -30.25 -30.20 -2.21 -2.10 -1.55 -2.21 -1.33 -1.99 -1.44 -1.44 -7.95 -4.64 -23.97 
-26.54 -27.69 -26.20 -26.39 -26.28 -25.69 -26.85 -27.34 -27.47 -27.53 -27.94 -26.93 -27.31 -27.70 -26.25 -26.81 -27.19 -27.32 -26.12 -27.61 -27.43 -2.21 -2.10 -1.55 -2.32 -1.55 -2.10 -1.66 -1.44 -7.07 -4.42 -20.10 
-23.78 -24.90 -23.31 -23.61 -23.42 -22.84 -24.07 -24.39 -24.63 -24.69 -24.94 -24.22 -24.48 -24.88 -23.73 -24.20 -24.32 -24.46 -23.31 -24.75 -24.53 -2.21 -1.99 -1.55 -2.54 -1.55 -2.21 -1.66 -1.21 -7.07 -4.64 -18.55 
-20.92 -22.02 -20.36 -20.73 -20.51 -19.97 -20.99 -21.25 -21.55 -21.56 -21.78 -21.39 -21.59 -21.94 -21.16 -21.52 -21.17 -21.39 -20.39 -21.63 -21.49 -2.21 -1.99 -1.55 -2.43 -1.55 -2.21 -1.55 -1.44 -6.63 -4.42 -17.56 
-18.01 -19.08 -17.44 -17.76 -17.59 -17.11 -17.71 -17.99 -18.27 -18.19 -18.51 -18.50 -18.58 -18.89 -18.47 -18.70 -17.81 -18.13 -17.41 -18.30 -18.36 -2.21 -2.10 -1.44 -2.32 -1.44 -2.21 -1.66 -1.44 -4.86 -3.09 -14.14 
-15.14 -16.15 -14.62 -14.82 -14.72 -14.33 -14.49 -14.78 -14.97 -14.82 -15.28 -15.64 -15.50 -15.78 -15.69 -15.76 -14.47 -14.86 -14.47 -15.01 -15.26 -2.21 -1.99 -1.44 -2.54 -1.77 -2.32 -1.66 -1.44 -7.51 -3.98 -11.27 
-12.37 -13.37 -11.93 -11.97 -11.95 -11.63 -11.56 -11.78 -11.84 -11.69 -12.21 -12.81 -12.42 -12.66 -12.81 -12.75 -11.41 -11.80 -11.65 -11.99 -12.27 -2.32 -2.10 -1.55 -2.54 -1.55 -2.32 -1.55 -1.44 -8.39 -3.98 -9.50 
-9.60 -10.71 -9.23 -9.18 -9.20 -8.97 -8.91 -9.00 -8.97 -8.88 -9.32 -9.95 -9.39 -9.54 -9.86 -9.73 -8.68 -9.00 -8.88 -9.29 -9.38 -2.32 -2.21 -1.55 -2.32 -1.44 -2.10 -1.66 -1.44 -7.95 -3.53 -6.18 
-6.79 -8.05 -6.42 -6.42 -6.40 -6.26 -6.37 -6.33 -6.28 -6.28 -6.58 -7.04 -6.46 -6.50 -6.92 -6.77 -6.11 -6.36 -6.08 -6.77 -6.56 -2.32 -2.21 -1.44 -2.43 -1.55 -2.32 -1.66 -1.44 -7.51 -3.76 -1.99 
-3.92 -5.27 -3.50 -3.65 -3.53 -3.44 -3.70 -3.61 -3.58 -3.67 -3.91 -4.08 -3.67 -3.61 -4.05 -3.85 -3.48 -3.68 -3.22 -4.20 -3.80 -2.32 -2.21 -1.55 -2.32 -1.33 -2.21 -1.55 -1.44 -7.51 -3.09 0.22 
-0.99 -2.33 -0.52 -0.83 -0.58 -0.52 -0.79 -0.73 -0.73 -0.91 -1.21 -1.08 -0.92 -0.80 -1.20 -0.90 -0.67 -0.85 -0.31 -1.44 -1.05 -2.21 -2.21 -1.66 -2.32 -1.33 -1.99 -1.66 -1.44 -6.63 -3.53 2.76 
1.96 0.72 2.43 2.07 2.38 2.46 2.26 2.25 2.25 2.02 1.58 1.92 1.88 2.00 1.64 2.07 2.26 2.07 2.62 1.50 1.70 -2.10 -2.10 -1.44 -2.32 -1.44 -2.10 -1.66 -1.33 -7.07 -3.98 6.63 
4.90 3.78 5.33 5.05 5.30 5.44 5.25 5.16 5.22 4.99 4.47 4.81 4.80 4.83 4.47 4.96 5.16 4.94 5.50 4.45 4.48 -2.10 -1.99 -1.55 -2.54 -1.66 -2.21 -1.55 -1.33 -6.63 -3.76 8.73 
7.76 6.74 8.21 8.10 8.14 8.37 8.03 7.91 8.07 7.87 7.43 7.59 7.82 7.68 7.24 7.71 7.91 7.69 8.33 7.29 7.30 -2.21 -2.10 -1.55 -2.54 -1.55 -2.10 -1.66 -1.33 -6.18 -3.76 9.17 
10.51 9.58 11.08 11.12 10.90 11.21 10.61 10.52 10.77 10.59 10.34 10.27 10.79 10.45 9.94 10.37 10.50 10.33 11.08 9.95 10.12 -2.21 -2.10 -1.44 -2.32 -1.55 -2.10 -1.66 -1.44 -7.95 -4.42 12.26 
13.10 12.26 13.84 13.93 13.55 13.84 13.05 13.08 13.33 13.15 13.00 12.82 13.47 13.00 12.50 12.96 12.98 12.91 13.65 12.44 12.79 -2.32 -2.10 -1.44 -2.43 -1.66 -2.32 -1.66 -1.44 -9.28 -4.64 15.35 
15.58 14.77 16.39 16.45 16.05 16.23 15.46 15.68 15.80 15.60 15.32 15.22 15.79 15.26 14.91 15.46 15.46 15.48 16.02 14.83 15.19 -2.32 -2.10 -1.77 -2.54 -1.55 -2.32 -1.66 -1.44 -7.95 -3.09 17.23 
18.04 17.17 18.77 18.80 18.49 18.52 18.00 18.39 18.34 18.11 17.50 17.56 17.94 17.40 17.27 17.93 18.09 18.11 18.31 17.30 17.45 -2.32 -2.10 -1.55 -2.32 -1.44 -2.10 -1.55 -1.44 -8.39 -3.98 19.99 
20.51 19.57 21.11 21.16 20.95 20.91 20.74 21.20 20.99 20.81 19.87 19.99 20.27 19.68 19.73 20.43 20.91 20.82 20.68 19.99 19.79 -2.32 -2.10 -1.55 -2.32 -1.44 -2.21 -1.66 -1.55 -7.95 -3.76 23.19 
22.98 22.03 23.49 23.62 23.45 23.46 23.58 23.94 23.71 23.63 22.63 22.57 22.95 22.28 22.31 23.01 23.77 23.54 23.13 22.85 22.38 -2.10 -2.21 -1.66 -2.43 -1.44 -2.21 -1.66 -1.44 -8.39 -3.98 25.40 
25.39 24.47 25.91 26.15 25.91 26.08 26.30 26.45 26.30 26.34 25.68 25.20 25.90 25.17 24.91 25.65 26.45 26.10 25.57 25.67 25.22 -2.21 -2.10 -1.66 -2.32 -1.33 -2.10 -1.66 -1.44 -7.51 -4.20 28.49 
27.76 26.80 28.30 28.63 28.26 28.60 28.70 28.64 28.61 28.72 28.69 27.69 28.79 28.12 27.34 28.16 28.78 28.40 27.89 28.20 28.09 -2.10 -1.99 -1.55 -2.32 -1.33 -2.21 -1.66 -1.44 -7.51 -4.42 31.03 
30.11 28.98 30.64 30.98 30.50 30.92 30.70 30.59 30.63 30.72 31.32 29.91 31.34 30.85 29.51 30.45 30.75 30.47 30.09 30.35 30.75 -2.10 -1.99 -1.55 -2.43 -1.55 -2.32 -1.55 -1.44 -6.18 -3.76 32.91 
32.45 31.12 32.91 33.19 32.68 33.06 32.50 32.51 32.55 32.53 33.46 32.00 33.50 33.26 31.56 32.61 32.57 32.46 32.22 32.29 33.09 -2.10 -2.10 -1.44 -2.54 -1.55 -2.32 -1.66 -1.44 -6.63 -4.42 32.47 
34.72 33.33 35.09 35.24 34.82 35.12 34.34 34.58 34.56 34.43 35.23 34.15 35.42 35.39 33.69 34.82 34.48 34.51 34.32 34.23 35.15 -2.10 -1.99 -1.55 -2.43 -1.44 -2.32 -1.55 -1.44 -8.39 -5.30 34.46 
36.75 35.55 37.06 37.10 36.82 37.05 36.29 36.71 36.66 36.50 36.83 36.37 37.22 37.31 35.88 37.05 36.50 36.59 36.28 36.24 36.96 -2.10 -2.10 -1.55 -2.76 -1.66 -2.43 -1.66 -1.44 -8.84 -4.42 36.56 
38.45 37.62 38.75 38.75 38.55 38.78 38.27 38.72 38.67 38.60 38.38 38.54 38.91 39.03 37.97 39.17 38.52 38.54 37.98 38.22 38.61 -2.32 -2.21 -1.66 -2.65 -1.66 -2.10 -1.66 -1.44 -9.72 -4.64 38.10 
39.88 39.43 40.26 40.30 40.03 40.29 40.14 40.53 40.49 40.56 39.97 40.49 40.53 40.61 39.83 41.04 40.42 40.32 39.48 40.08 40.22 -2.21 -2.10 -1.66 -2.43 -1.55 -2.21 -1.55 -1.44 -9.28 -4.42 40.97 
41.25 41.05 41.80 41.86 41.43 41.69 41.84 42.18 42.18 42.30 41.61 42.17 42.09 42.10 41.42 42.68 42.19 42.00 40.94 41.82 41.84 -2.21 -2.10 -1.77 -2.43 -1.44 -2.21 -1.66 -1.55 -9.28 -4.42 44.18 
42.73 42.64 43.50 43.50 42.96 43.12 43.44 43.78 43.84 43.88 43.22 43.64 43.61 43.59 42.86 44.17 43.83 43.65 42.50 43.49 43.42 -2.32 -2.21 -1.55 -2.43 -1.44 -2.21 -1.66 -1.55 -8.84 -4.20 45.06 
44.39 44.28 45.31 45.22 44.68 44.67 45.02 45.36 45.54 45.41 44.77 45.04 45.09 45.12 44.27 45.62 45.39 45.30 44.22 45.13 44.91 -2.21 -2.21 -1.55 -2.32 -1.44 -2.10 -1.55 -1.33 -7.95 -3.98 47.49 
46.11 45.87 47.03 46.92 46.47 46.27 46.63 46.93 47.23 46.97 46.24 46.47 46.51 46.69 45.71 47.02 46.90 46.89 45.97 46.74 46.28 -2.21 -2.10 -1.55 -2.43 -1.44 -2.10 -1.66 -1.33 -6.63 -4.20 49.15 
47.68 47.31 48.53 48.47 48.11 47.77 48.19 48.42 48.79 48.51 47.62 47.88 47.81 48.17 47.13 48.30 48.34 48.37 47.60 48.25 47.53 -2.10 -2.10 -1.44 -2.54 -1.66 -2.21 -1.55 -1.44 -5.74 -3.31 48.26 
48.98 48.53 49.77 49.82 49.45 49.05 49.60 49.75 50.12 49.93 48.94 49.21 48.99 49.43 48.47 49.47 49.66 49.71 48.98 49.58 48.70 -2.10 -2.10 -1.33 -2.54 -1.55 -2.32 -1.66 -1.33 -6.63 -3.76 46.94 
49.94 49.56 50.75 50.89 50.37 50.01 50.69 50.81 51.10 51.03 50.11 50.36 50.03 50.36 49.65 50.52 50.75 50.79 50.04 50.66 49.77 -2.21 -1.99 -1.55 -2.43 -1.66 -2.10 -1.55 -1.44 -6.63 -3.98 49.04 
50.52 50.37 51.37 51.62 50.86 50.59 51.30 51.41 51.61 51.62 51.03 51.20 50.91 50.94 50.54 51.36 51.41 51.46 50.67 51.35 50.62 -2.10 -2.21 -1.55 -2.65 -1.77 -2.32 -1.55 -1.33 -8.39 -4.86 50.58 
50.87 50.92 51.68 52.05 51.07 50.90 51.46 51.59 51.75 51.74 51.68 51.73 51.62 51.31 51.13 51.96 51.65 51.69 50.98 51.67 51.24 -2.21 -2.10 -1.55 -2.54 -1.55 -2.21 -1.55 -1.44 -8.84 -4.20 50.69 
51.25 51.32 51.92 52.41 51.33 51.24 51.44 51.65 51.82 51.75 52.20 52.11 52.28 51.71 51.58 52.42 51.75 51.76 51.25 51.84 51.72 -2.21 -2.10 -1.66 -2.32 -1.55 -2.21 -1.66 -1.33 -8.84 -3.98 51.69 
51.83 51.75 52.33 52.87 51.81 51.77 51.56 51.88 52.10 51.96 52.71 52.51 52.91 52.26 52.05 52.87 51.97 51.99 51.71 52.10 52.19 -2.32 -2.10 -1.55 -2.54 -1.55 -2.21 -1.66 -1.44 -8.39 -3.98 52.68 
52.52 52.30 52.88 53.37 52.41 52.36 51.86 52.30 52.53 52.40 53.19 52.88 53.41 52.80 52.48 53.27 52.35 52.43 52.30 52.45 52.63 -2.21 -2.10 -1.55 -2.54 -1.55 -2.32 -1.55 -1.33 -7.07 -3.31 51.80 
53.03 52.82 53.29 53.70 52.80 52.71 52.15 52.66 52.83 52.77 53.45 52.98 53.65 53.11 52.65 53.44 52.66 52.83 52.69 52.72 52.93 -2.32 -2.10 -1.55 -2.32 -1.33 -2.10 -1.55 -1.33 -6.18 -3.53 51.36 
53.03 53.03 53.24 53.57 52.69 52.55 52.12 52.62 52.65 52.67 53.32 52.60 53.51 52.98 52.35 53.21 52.58 52.83 52.57 52.60 52.92 -2.21 -1.99 -1.44 -2.32 -1.44 -2.10 -1.55 -1.33 -6.18 -3.98 52.79 
52.44 52.75 52.60 52.92 52.05 51.86 51.55 52.00 51.93 51.94 52.72 51.78 52.98 52.35 51.60 52.56 51.96 52.22 51.86 51.95 52.48 -2.10 -1.88 -1.44 -2.65 -1.55 -2.32 -1.66 -1.44 -7.51 -4.20 51.25 
51.47 52.02 51.61 51.92 51.13 50.90 50.57 50.95 50.92 50.80 51.80 50.80 52.18 51.38 50.68 51.72 50.98 51.16 50.85 50.93 51.69 -2.10 -1.99 -1.55 -2.54 -1.55 -2.32 -1.66 -1.33 -7.51 -4.42 49.26 
50.47 51.10 50.61 50.87 50.26 50.02 49.51 49.86 50.02 49.70 50.85 49.97 51.29 50.41 49.84 50.95 50.00 50.02 49.93 49.89 50.77 -2.21 -1.88 -1.33 -2.43 -1.55 -2.21 -1.66 -1.33 -7.07 -4.64 49.70 
49.61 50.23 49.80 49.94 49.57 49.32 48.66 49.02 49.41 48.91 50.07 49.36 50.38 49.61 49.13 50.28 49.27 49.09 49.24 49.08 49.88 -2.32 -1.99 -1.44 -2.65 -1.77 -2.43 -1.55 -1.44 -8.39 -3.53 48.49 
48.88 49.50 49.15 49.09 48.96 48.69 48.06 48.48 48.95 48.38 49.44 48.82 49.49 48.98 48.43 49.60 48.76 48.45 48.66 48.51 49.06 -2.32 -1.99 -1.66 -2.65 -1.66 -2.43 -1.66 -1.55 -9.28 -4.64 46.83 
48.14 48.80 48.51 48.22 48.25 47.93 47.50 48.01 48.38 47.85 48.76 48.14 48.59 48.33 47.59 48.78 48.22 47.91 47.95 47.99 48.21 -2.32 -1.99 -1.66 -2.43 -1.44 -2.21 -1.66 -1.44 -9.28 -3.98 46.61 
47.20 47.90 47.66 47.17 47.24 46.90 46.66 47.27 47.44 47.00 47.78 47.18 47.57 47.38 46.53 47.71 47.33 47.15 46.94 47.19 47.19 -2.32 -2.10 -1.66 -2.54 -1.44 -2.32 -1.66 -1.44 -7.51 -3.31 46.61 
45.97 46.68 46.47 45.89 45.88 45.60 45.32 46.05 46.04 45.72 46.35 45.90 46.31 45.99 45.23 46.40 45.95 45.91 45.56 45.93 45.86 -2.32 -2.21 -1.66 -2.54 -1.44 -2.32 -1.55 -1.44 -7.95 -3.76 45.39 
44.49 45.16 44.97 44.45 44.27 44.14 43.58 44.40 44.31 44.11 44.56 44.43 44.80 44.29 43.81 44.98 44.23 44.24 43.94 44.29 44.26 -2.10 -1.99 -1.44 -2.32 -1.21 -2.10 -1.66 -1.44 -6.63 -3.53 44.40 
42.91 43.50 43.30 42.95 42.60 42.64 41.77 42.62 42.53 42.45 42.66 42.94 43.20 42.57 42.41 43.56 42.52 42.42 42.26 42.57 42.54 -2.10 -1.99 -1.44 -2.43 -1.33 -2.21 -1.55 -1.44 -5.74 -3.53 43.74 
41.33 41.87 41.68 41.44 41.02 41.18 40.18 41.01 40.93 40.94 40.93 41.48 41.66 41.07 41.04 42.11 41.06 40.76 40.66 41.05 40.88 -2.21 -1.99 -1.44 -2.65 -1.66 -2.32 -1.55 -1.33 -5.30 -3.76 40.64 
39.74 40.35 40.18 39.90 39.51 39.72 38.88 39.63 39.51 39.57 39.43 39.93 40.18 39.75 39.57 40.53 39.83 39.37 39.15 39.77 39.34 -2.10 -1.99 -1.44 -2.65 -1.55 -2.32 -1.55 -1.55 -4.86 -3.09 37.11 
38.05 38.87 38.64 38.24 37.93 38.11 37.58 38.24 38.05 38.08 37.99 38.04 38.54 38.37 37.78 38.63 38.53 38.01 37.56 38.46 37.74 -2.21 -1.99 -1.55 -2.54 -1.44 -2.32 -1.55 -1.44 -6.18 -3.76 36.45 
36.11 37.24 36.78 36.30 36.09 36.16 35.90 36.46 36.25 36.20 36.27 35.64 36.50 36.60 35.48 36.27 36.80 36.29 35.69 36.73 35.84 -2.32 -1.99 -1.55 -2.76 -1.77 -2.43 -1.66 -1.44 -7.51 -4.42 33.91 
33.89 35.26 34.48 34.03 33.93 33.80 33.67 34.14 33.98 33.82 34.15 32.89 34.11 34.37 32.81 33.61 34.49 34.04 33.44 34.44 33.58 -2.21 -2.10 -1.66 -2.54 -1.66 -2.43 -1.66 -1.33 -7.51 -3.53 30.37 
31.45 32.85 31.82 31.53 31.53 31.18 31.06 31.46 31.43 31.13 31.74 30.20 31.62 31.87 30.10 30.95 31.81 31.41 30.97 31.80 31.15 -2.32 -2.10 -1.66 -2.65 -1.44 -2.32 -1.55 -1.55 -8.84 -4.20 28.49 
28.81 30.09 29.00 28.85 28.96 28.43 28.35 28.69 28.83 28.38 29.17 27.78 29.13 29.24 27.56 28.44 29.01 28.71 28.36 29.07 28.68 -2.32 -2.10 -1.55 -2.54 -1.55 -2.43 -1.55 -1.44 -8.84 -4.42 26.06 
25.95 27.08 26.08 26.00 26.19 25.60 25.66 26.00 26.27 25.69 26.43 25.48 26.51 26.44 25.11 25.94 26.27 26.09 25.61 26.41 26.09 -2.32 -1.99 -1.55 -2.65 -1.55 -2.43 -1.66 -1.44 -7.51 -3.53 22.97 
22.87 23.94 23.05 22.93 23.17 22.63 23.00 23.36 23.65 23.07 23.46 23.01 23.62 23.44 22.54 23.24 23.58 23.51 22.64 23.77 23.29 -2.21 -2.10 -1.55 -2.43 -1.44 -2.10 -1.55 -1.33 -6.18 -3.31 21.09 
19.66 20.79 19.89 19.66 19.94 19.52 20.24 20.64 20.83 20.42 20.35 20.14 20.51 20.32 19.70 20.21 20.78 20.81 19.44 21.00 20.32 -2.21 -2.10 -1.44 -2.54 -1.44 -2.21 -1.66 -1.44 -5.74 -3.53 19.00 
16.51 17.72 16.70 16.33 16.67 16.36 17.31 17.77 17.78 17.65 17.27 16.94 17.39 17.26 16.61 16.94 17.79 17.91 16.18 18.01 17.33 -2.21 -1.99 -1.55 -2.65 -1.55 -2.43 -1.66 -1.33 -6.63 -3.98 15.79 
13.57 14.79 13.66 13.17 13.54 13.32 14.30 14.82 14.65 14.79 14.42 13.69 14.48 14.43 13.51 13.71 14.71 14.90 13.09 14.86 14.53 -2.21 -2.10 -1.55 -2.65 -1.66 -2.43 -1.66 -1.44 -7.07 -4.86 11.04 
10.82 12.05 10.83 10.26 10.65 10.49 11.29 11.84 11.56 11.84 11.85 10.64 11.84 11.88 10.61 10.76 11.67 11.91 10.26 11.69 12.01 -2.32 -1.99 -1.66 -2.76 -1.55 -2.32 -1.33 -1.44 -6.18 -3.76 9.06 
8.09 9.37 8.11 7.52 7.89 7.77 8.28 8.76 8.52 8.76 9.37 7.81 9.32 9.46 7.90 8.04 8.67 8.92 7.56 8.56 9.62 -2.32 -2.10 -1.55 -2.87 -1.77 -2.54 -1.55 -1.44 -7.51 -3.53 6.07 
5.24 6.59 5.31 4.79 5.07 4.98 5.21 5.55 5.45 5.55 6.78 5.09 6.67 6.94 5.25 5.36 5.64 5.86 4.78 5.46 7.12 -2.32 -2.10 -1.66 -2.76 -1.77 -2.43 -1.66 -1.44 -8.84 -4.42 2.65 
2.29 3.68 2.38 2.01 2.16 2.03 2.15 2.32 2.38 2.31 3.98 2.36 3.81 4.23 2.55 2.57 2.62 2.77 1.86 2.45 4.39 -2.32 -2.21 -1.66 -2.54 -1.66 -2.21 -1.66 -1.44 -8.84 -3.76 1.88 
-0.63 0.76 -0.60 -0.76 -0.77 -0.99 -0.78 -0.73 -0.58 -0.75 1.03 -0.45 0.78 1.26 -0.25 -0.38 -0.32 -0.24 -1.08 -0.41 1.40 -2.32 -2.21 -1.66 -2.65 -1.55 -2.43 -1.66 -1.44 -7.07 -2.87 0.66 
-3.38 -2.02 -3.45 -3.45 -3.56 -3.88 -3.48 -3.47 -3.34 -3.51 -1.95 -3.36 -2.29 -1.91 -3.15 -3.44 -3.11 -3.07 -3.84 -3.11 -1.72 -2.21 -2.10 -1.66 -2.65 -1.55 -2.32 -1.66 -1.55 -6.18 -3.09 -2.10 
-5.89 -4.57 -6.02 -5.98 -6.09 -6.46 -5.96 -5.92 -5.87 -5.99 -4.85 -6.24 -5.22 -5.09 -6.08 -6.47 -5.74 -5.70 -6.28 -5.65 -4.72 -2.32 -2.10 -1.44 -2.43 -1.55 -2.21 -1.55 -1.44 -6.18 -3.53 -4.86 
-8.27 -6.96 -8.35 -8.40 -8.40 -8.74 -8.35 -8.28 -8.28 -8.37 -7.61 -9.02 -7.95 -8.08 -8.93 -9.34 -8.29 -8.23 -8.47 -8.10 -7.48 -2.21 -1.99 -1.44 -2.43 -1.55 -2.21 -1.55 -1.44 -6.63 -3.98 -6.74 
-10.69 -9.36 -10.64 -10.84 -10.66 -10.93 -10.81 -10.75 -10.74 -10.88 -10.25 -11.61 -10.51 -10.78 -11.63 -11.98 -10.86 -10.81 -10.66 -10.61 -10.03 -2.21 -1.99 -1.77 -2.65 -1.66 -2.32 -1.66 -1.33 -5.74 -3.53 -10.16 
-13.21 -11.87 -12.99 -13.38 -13.05 -13.19 -13.34 -13.35 -13.31 -13.52 -12.77 -13.98 -12.95 -13.23 -14.10 -14.31 -13.45 -13.43 -13.01 -13.21 -12.47 -2.21 -2.10 -1.44 -2.65 -1.55 -2.43 -1.66 -1.55 -7.07 -4.42 -14.03 
-15.80 -14.47 -15.44 -15.97 -15.59 -15.58 -15.79 -15.87 -15.89 -16.10 -15.22 -16.14 -15.34 -15.55 -16.34 -16.44 -15.96 -15.94 -15.52 -15.76 -14.91 -2.10 -2.10 -1.44 -2.65 -1.66 -2.32 -1.55 -1.44 -6.63 -4.20 -15.13 
-18.34 -17.08 -17.95 -18.54 -18.20 -18.02 -18.04 -18.14 -18.36 -18.43 -17.68 -18.25 -17.82 -17.94 -18.48 -18.56 -18.32 -18.24 -18.09 -18.13 -17.44 -2.32 -2.21 -1.55 -2.76 -1.88 -2.54 -1.66 -1.44 -8.39 -4.86 -18.22 
-20.73 -19.60 -20.43 -21.02 -20.74 -20.42 -20.17 -20.22 -20.72 -20.55 -20.21 -20.52 -20.40 -20.49 -20.64 -20.86 -20.58 -20.39 -20.57 -20.33 -20.07 -2.32 -2.21 -1.66 -2.76 -1.77 -2.43 -1.77 -1.44 -8.39 -3.98 -21.54 
-22.95 -21.99 -22.79 -23.37 -23.12 -22.72 -22.35 -22.29 -23.05 -22.65 -22.75 -22.99 -22.97 -23.08 -22.85 -23.33 -22.84 -22.57 -22.89 -22.48 -22.67 -2.43 -2.21 -1.77 -2.65 -1.55 -2.32 -1.55 -1.44 -8.84 -3.98 -22.86 
-25.09 -24.25 -25.02 -25.63 -25.39 -24.95 -24.70 -24.54 -25.40 -24.91 -25.18 -25.53 -25.39 -25.54 -25.08 -25.81 -25.14 -24.89 -25.05 -24.68 -25.12 -2.43 -2.10 -1.66 -2.65 -1.66 -2.43 -1.66 -1.44 -8.84 -3.98 -23.97 
-27.28 -26.45 -27.22 -27.88 -27.65 -27.20 -27.13 -26.94 -27.71 -27.31 -27.48 -27.95 -27.61 -27.81 -27.29 -28.12 -27.45 -27.29 -27.17 -26.93 -27.41 -2.43 -2.21 -1.66 -2.65 -1.66 -2.43 -1.66 -1.44 -7.51 -3.76 -28.05 
-29.60 -28.63 -29.48 -30.13 -29.97 -29.52 -29.47 -29.32 -29.91 -29.71 -29.69 -30.13 -29.73 -29.94 -29.45 -30.21 -29.63 -29.61 -29.31 -29.13 -29.59 -2.43 -2.10 -1.66 -2.43 -1.44 -2.10 -1.55 -1.44 -7.07 -3.76 -29.71 
-32.01 -30.86 -31.87 -32.42 -32.34 -31.93 -31.66 -31.61 -32.01 -32.02 -31.88 -32.12 -31.88 -32.11 -31.58 -32.21 -31.73 -31.76 -31.55 -31.28 -31.77 -2.32 -1.99 -1.55 -2.54 -1.55 -2.21 -1.66 -1.33 -7.07 -3.98 -30.15 
-34.41 -33.18 -34.35 -34.74 -34.72 -34.39 -33.78 -33.84 -34.12 -34.23 -34.09 -34.06 -34.16 -34.41 -33.73 -34.28 -33.84 -33.84 -33.92 -33.44 -34.00 -2.21 -2.10 -1.44 -2.65 -1.66 -2.32 -1.66 -1.44 -4.86 -3.31 -32.80 
-36.59 -35.53 -36.67 -36.98 -36.92 -36.72 -35.88 -36.02 -36.20 -36.32 -36.20 -36.03 -36.41 -36.64 -35.84 -36.43 -36.01 -35.88 -36.27 -35.58 -36.15 -2.21 -2.10 -1.55 -2.54 -1.66 -2.32 -1.66 -1.44 -5.74 -3.76 -35.12 
-38.41 -37.71 -38.61 -38.95 -38.76 -38.68 -37.90 -38.10 -38.14 -38.25 -38.06 -37.99 -38.38 -38.54 -37.85 -38.53 -38.13 -37.85 -38.35 -37.62 -38.06 -2.21 -1.88 -1.55 -2.65 -1.66 -2.32 -1.55 -1.33 -6.63 -4.20 -37.00 
-39.88 -39.56 -40.14 -40.57 -40.22 -40.26 -39.80 -40.07 -39.89 -40.04 -39.70 -39.86 -40.01 -40.10 -39.72 -40.50 -40.10 -39.73 -40.04 -39.53 -39.69 -2.32 -2.21 -1.55 -2.76 -1.66 -2.43 -1.66 -1.33 -8.39 -4.86 -38.77 
-41.17 -41.04 -41.42 -41.91 -41.46 -41.55 -41.57 -41.92 -41.51 -41.74 -41.26 -41.59 -41.39 -41.46 -41.42 -42.27 -41.88 -41.54 -41.42 -41.36 -41.13 -2.32 -2.21 -1.66 -2.76 -1.55 -2.43 -1.55 -1.33 -9.72 -4.86 -41.97 
-42.53 -42.29 -42.65 -43.13 -42.71 -42.76 -43.19 -43.63 -43.05 -43.34 -42.78 -43.08 -42.67 -42.79 -42.91 -43.79 -43.46 -43.25 -42.68 -43.11 -42.48 -2.32 -2.21 -1.55 -2.43 -1.44 -2.21 -1.66 -1.55 -8.84 -4.20 -42.52 
-44.08 -43.51 -44.00 -44.45 -44.15 -44.05 -44.64 -45.16 -44.56 -44.82 -44.24 -44.37 -43.95 -44.14 -44.24 -45.08 -44.89 -44.81 -44.04 -44.70 -43.83 -2.32 -2.21 -1.66 -2.65 -1.66 -2.43 -1.66 -1.44 -9.28 -4.42 -43.52 
-45.80 -44.85 -45.53 -45.96 -45.77 -45.49 -45.94 -46.51 -46.04 -46.20 -45.53 -45.61 -45.22 -45.44 -45.50 -46.28 -46.21 -46.18 -45.55 -46.11 -45.18 -2.32 -2.21 -1.66 -2.65 -1.55 -2.32 -1.55 -1.44 -8.84 -3.98 -45.17 
-47.50 -46.36 -47.15 -47.54 -47.41 -47.01 -47.13 -47.75 -47.44 -47.50 -46.64 -46.91 -46.43 -46.65 -46.73 -47.48 -47.45 -47.40 -47.12 -47.35 -46.45 -2.21 -2.21 -1.77 -2.43 -1.44 -2.21 -1.66 -1.55 -7.51 -3.98 -45.06 
-48.97 -47.90 -48.68 -49.00 -48.84 -48.45 -48.29 -48.96 -48.72 -48.78 -47.65 -48.25 -47.58 -47.77 -47.89 -48.68 -48.62 -48.57 -48.56 -48.51 -47.60 -2.21 -2.10 -1.55 -2.43 -1.44 -2.21 -1.66 -1.33 -7.07 -4.86 -43.96 
-50.07 -49.25 -49.90 -50.15 -49.87 -49.59 -49.41 -50.11 -49.82 -49.95 -48.66 -49.45 -48.66 -48.84 -48.89 -49.81 -49.67 -49.69 -49.68 -49.57 -48.60 -2.21 -1.99 -1.55 -2.65 -1.55 -2.32 -1.66 -1.33 -6.63 -3.53 -46.61 
-50.69 -50.18 -50.64 -50.88 -50.42 -50.28 -50.29 -51.02 -50.64 -50.82 -49.63 -50.30 -49.61 -49.81 -49.60 -50.66 -50.45 -50.62 -50.34 -50.37 -49.42 -2.21 -1.99 -1.55 -2.65 -1.77 -2.32 -1.66 -1.44 -6.63 -4.42 -49.15 
-50.91 -50.62 -50.94 -51.23 -50.63 -50.55 -50.77 -51.49 -51.07 -51.23 -50.43 -50.73 -50.35 -50.58 -50.02 -51.18 -50.90 -51.15 -50.57 -50.78 -50.02 -2.21 -2.10 -1.55 -2.43 -1.66 -2.32 -1.77 -1.44 -7.07 -3.98 -48.93 
-50.95 -50.83 -51.12 -51.44 -50.81 -50.69 -50.89 -51.59 -51.15 -51.26 -50.98 -50.92 -50.87 -51.15 -50.32 -51.50 -51.10 -51.31 -50.63 -50.85 -50.46 -2.32 -2.10 -1.66 -2.65 -1.77 -2.43 -1.66 -1.44 -7.95 -4.20 -48.60 
-51.03 -51.10 -51.39 -51.67 -51.12 -50.89 -50.84 -51.49 -51.04 -51.12 -51.26 -51.07 -51.21 -51.49 -50.66 -51.78 -51.18 -51.24 -50.73 -50.80 -50.78 -2.43 -2.10 -1.55 -2.65 -1.66 -2.43 -1.66 -1.44 -8.39 -3.31 -48.93 
-51.15 -51.49 -51.65 -51.85 -51.43 -51.08 -50.68 -51.29 -50.86 -50.98 -51.24 -51.18 -51.30 -51.52 -50.96 -52.00 -51.16 -51.04 -50.82 -50.73 -50.90 -2.32 -2.21 -1.66 -2.43 -1.55 -2.21 -1.66 -1.44 -8.39 -4.20 -48.15 
-51.14 -51.74 -51.60 -51.79 -51.45 -51.03 -50.41 -50.98 -50.63 -50.85 -50.94 -51.13 -51.08 -51.20 -51.01 -51.99 -50.98 -50.73 -50.74 -50.62 -50.74 -2.32 -2.21 -1.66 -2.54 -1.55 -2.32 -1.66 -1.44 -8.84 -3.53 -46.72 
-50.83 -51.57 -51.07 -51.35 -51.03 -50.56 -50.02 -50.55 -50.31 -50.67 -50.45 -50.83 -50.58 -50.61 -50.69 -51.62 -50.59 -50.32 -50.37 -50.41 -50.31 -2.32 -2.21 -1.77 -2.54 -1.55 -2.32 -1.66 -1.44 -7.95 -3.98 -47.38 
-50.19 -50.89 -50.15 -50.58 -50.23 -49.74 -49.54 -50.01 -49.92 -50.35 -49.89 -50.28 -49.92 -49.87 -50.06 -50.88 -50.03 -49.82 -49.70 -50.05 -49.67 -2.21 -2.21 -1.44 -2.32 -1.44 -2.10 -1.66 -1.44 -7.51 -4.20 -46.50 
-49.35 -49.87 -49.11 -49.62 -49.29 -48.77 -49.01 -49.37 -49.46 -49.84 -49.30 -49.59 -49.21 -49.12 -49.28 -49.95 -49.40 -49.28 -48.88 -49.50 -48.92 -2.21 -2.10 -1.55 -2.43 -1.44 -2.21 -1.66 -1.55 -6.18 -3.53 -45.28 
-48.52 -48.79 -48.20 -48.68 -48.45 -47.86 -48.40 -48.63 -48.91 -49.13 -48.63 -48.83 -48.47 -48.35 -48.45 -48.99 -48.75 -48.71 -48.06 -48.79 -48.12 -2.21 -2.10 -1.55 -2.54 -1.55 -2.32 -1.66 -1.44 -5.74 -3.53 -44.73 
-47.74 -47.85 -47.46 -47.80 -47.71 -47.07 -47.58 -47.72 -48.14 -48.20 -47.73 -47.93 -47.64 -47.48 -47.50 -48.00 -48.00 -48.00 -47.28 -47.88 -47.28 -2.21 -2.10 -1.33 -2.54 -1.66 -2.32 -1.55 -1.44 -6.18 -3.98 -44.84 
-46.90 -47.04 -46.74 -46.87 -46.93 -46.25 -46.47 -46.59 -47.06 -47.04 -46.55 -46.79 -46.64 -46.43 -46.32 -46.85 -47.02 -47.01 -46.46 -46.75 -46.36 -2.21 -2.10 -1.66 -2.54 -1.55 -2.32 -1.66 -1.44 -7.07 -4.42 -43.85 
-45.87 -46.21 -45.84 -45.79 -45.93 -45.26 -45.12 -45.30 -45.72 -45.75 -45.23 -45.43 -45.51 -45.28 -44.95 -45.50 -45.78 -45.72 -45.49 -45.49 -45.34 -2.32 -2.21 -1.55 -2.76 -1.66 -2.43 -1.66 -1.44 -9.28 -5.08 -42.96 
-44.57 -45.19 -44.70 -44.54 -44.68 -44.06 -43.70 -43.99 -44.29 -44.42 -43.93 -43.99 -44.30 -44.11 -43.50 -44.01 -44.39 -44.28 -44.33 -44.21 -44.19 -2.32 -2.21 -1.55 -2.54 -1.55 -2.32 -1.66 -1.55 -9.28 -4.20 -42.96 
-43.12 -43.92 -43.33 -43.19 -43.25 -42.68 -42.34 -42.71 -42.92 -43.13 -42.72 -42.60 -42.98 -42.90 -42.07 -42.53 -42.99 -42.86 -43.00 -42.97 -42.89 -2.32 -2.21 -1.66 -2.43 -1.44 -2.21 -1.66 -1.44 -8.39 -3.76 -41.20 
-41.69 -42.47 -41.86 -41.87 -41.77 -41.24 -41.06 -41.50 -41.62 -41.82 -41.53 -41.29 -41.54 -41.61 -40.71 -41.19 -41.65 -41.54 -41.60 -41.74 -41.45 -2.32 -2.32 -1.66 -2.54 -1.55 -2.21 -1.66 -1.44 -8.84 -3.98 -38.55 
-40.35 -41.01 -40.39 -40.59 -40.35 -39.80 -39.78 -40.29 -40.28 -40.40 -40.21 -39.99 -40.01 -40.19 -39.44 -39.98 -40.31 -40.23 -40.17 -40.44 -39.95 -2.32 -2.21 -1.77 -2.43 -1.55 -2.10 -1.66 -1.44 -7.51 -3.53 -37.11 
-39.01 -39.59 -38.94 -39.24 -38.92 -38.35 -38.30 -38.87 -38.72 -38.75 -38.65 -38.53 -38.34 -38.57 -38.13 -38.67 -38.82 -38.75 -38.65 -38.91 -38.36 -2.32 -2.10 -1.55 -2.21 -1.33 -2.10 -1.66 -1.33 -6.63 -3.53 -33.80 
-37.42 -38.10 -37.37 -37.61 -37.27 -36.71 -36.42 -37.05 -36.79 -36.76 -36.75 -36.78 -36.49 -36.72 -36.60 -37.03 -36.95 -36.86 -36.91 -37.02 -36.62 -2.21 -1.99 -1.44 -2.32 -1.44 -2.21 -1.66 -1.33 -4.86 -3.31 -30.92 
-35.34 -36.33 -35.47 -35.54 -35.24 -34.72 -34.03 -34.71 -34.45 -34.40 -34.54 -34.72 -34.40 -34.61 -34.70 -34.95 -34.63 -34.50 -34.84 -34.73 -34.62 -2.21 -2.10 -1.55 -2.43 -1.55 -2.21 -1.66 -1.33 -5.30 -3.53 -30.04 
-32.74 -34.14 -33.10 -33.03 -32.80 -32.28 -31.25 -31.97 -31.84 -31.76 -32.09 -32.36 -32.03 -32.24 -32.39 -32.50 -31.94 -31.77 -32.40 -32.14 -32.28 -2.21 -1.99 -1.44 -2.43 -1.55 -2.21 -1.66 -1.33 -7.07 -4.42 -28.61 
-29.86 -31.56 -30.34 -30.25 -30.10 -29.53 -28.36 -29.06 -29.16 -29.02 -29.50 -29.76 -29.45 -29.69 -29.75 -29.82 -29.13 -28.94 -29.71 -29.43 -29.66 -2.21 -1.99 -1.44 -2.43 -1.55 -2.32 -1.66 -1.44 -6.18 -3.53 -24.30 
-27.03 -28.81 -27.46 -27.43 -27.35 -26.72 -25.63 -26.26 -26.51 -26.34 -26.91 -27.01 -26.80 -27.10 -26.96 -27.05 -26.40 -26.24 -26.95 -26.77 -26.94 -2.32 -2.21 -1.55 -2.65 -1.66 -2.32 -1.55 -1.44 -6.18 -3.09 -21.65 
-24.36 -26.08 -24.60 -24.64 -24.58 -23.94 -23.07 -23.58 -23.85 -23.71 -24.36 -24.20 -24.18 -24.55 -24.16 -24.28 -23.72 -23.66 -24.19 -24.12 -24.27 -2.21 -2.21 -1.66 -2.43 -1.55 -2.32 -1.66 -1.44 -7.51 -3.53 -20.87 
-21.71 -23.35 -21.69 -21.74 -21.70 -21.10 -20.48 -20.89 -21.06 -21.04 -21.74 -21.38 -21.59 -21.91 -21.42 -21.50 -20.94 -21.04 -21.35 -21.34 -21.63 -2.43 -2.21 -1.55 -2.43 -1.44 -2.21 -1.66 -1.44 -7.95 -3.53 -18.22 
-18.98 -20.54 -18.68 -18.72 -18.70 -18.12 -17.76 -18.13 -18.18 -18.27 -19.01 -18.64 -18.97 -19.10 -18.76 -18.79 -18.03 -18.27 -18.45 -18.39 -18.97 -2.43 -2.21 -1.77 -2.54 -1.44 -2.21 -1.66 -1.44 -7.95 -3.98 -14.91 
-16.16 -17.68 -15.66 -15.69 -15.74 -15.13 -14.97 -15.37 -15.34 -15.47 -16.23 -16.03 -16.35 -16.19 -16.21 -16.23 -15.17 -15.46 -15.59 -15.43 -16.26 -2.32 -2.10 -1.66 -2.43 -1.44 -2.21 -1.55 -1.44 -7.95 -3.31 -12.04 
-13.33 -14.83 -12.79 -12.80 -12.96 -12.27 -12.25 -12.69 -12.63 -12.75 -13.53 -13.50 -13.73 -13.31 -13.67 -13.77 -12.51 -12.73 -12.89 -12.62 -13.56 -2.21 -2.21 -1.55 -2.32 -1.33 -1.99 -1.66 -1.44 -7.51 -3.53 -8.28 
-10.48 -12.03 -10.08 -10.02 -10.30 -9.55 -9.69 -10.08 -9.97 -10.11 -10.94 -10.90 -11.08 -10.55 -11.00 -11.24 -10.06 -10.12 -10.29 -10.03 -10.86 -2.32 -1.99 -1.55 -2.43 -1.55 -2.10 -1.66 -1.55 -5.74 -3.31 -4.75 
-7.56 -9.19 -7.39 -7.21 -7.59 -6.87 -7.20 -7.43 -7.24 -7.46 -8.31 -8.09 -8.27 -7.85 -8.08 -8.49 -7.62 -7.52 -7.65 -7.52 -8.09 -2.10 -2.10 -1.66 -2.43 -1.55 -2.21 -1.66 -1.44 -6.18 -3.53 -3.53 
-4.59 -6.21 -4.57 -4.28 -4.69 -4.09 -4.62 -4.65 -4.38 -4.70 -5.47 -5.08 -5.22 -5.07 -4.97 -5.48 -4.97 -4.81 -4.80 -4.89 -5.16 -2.21 -2.10 -1.44 -2.54 -1.55 -2.21 -1.66 -1.33 -6.18 -4.42 -2.65 
